#  E (eV)   dos(E)     Int dos(E) EFermi =    6.664 eV
  -9.000  0.0000E+00  0.0000E+00
  -8.990  0.0000E+00  0.0000E+00
  -8.980  0.0000E+00  0.0000E+00
  -8.970  0.0000E+00  0.0000E+00
  -8.960  0.0000E+00  0.0000E+00
  -8.950  0.0000E+00  0.0000E+00
  -8.940  0.0000E+00  0.0000E+00
  -8.930  0.0000E+00  0.0000E+00
  -8.920  0.0000E+00  0.0000E+00
  -8.910  0.0000E+00  0.0000E+00
  -8.900  0.0000E+00  0.0000E+00
  -8.890  0.0000E+00  0.0000E+00
  -8.880  0.0000E+00  0.0000E+00
  -8.870  0.0000E+00  0.0000E+00
  -8.860  0.0000E+00  0.0000E+00
  -8.850  0.0000E+00  0.0000E+00
  -8.840  0.0000E+00  0.0000E+00
  -8.830  0.0000E+00  0.0000E+00
  -8.820  0.0000E+00  0.0000E+00
  -8.810  0.0000E+00  0.0000E+00
  -8.800  0.0000E+00  0.0000E+00
  -8.790  0.0000E+00  0.0000E+00
  -8.780  0.0000E+00  0.0000E+00
  -8.770  0.0000E+00  0.0000E+00
  -8.760  0.0000E+00  0.0000E+00
  -8.750  0.0000E+00  0.0000E+00
  -8.740  0.0000E+00  0.0000E+00
  -8.730  0.0000E+00  0.0000E+00
  -8.720  0.0000E+00  0.0000E+00
  -8.710  0.0000E+00  0.0000E+00
  -8.700  0.0000E+00  0.0000E+00
  -8.690  0.0000E+00  0.0000E+00
  -8.680  0.0000E+00  0.0000E+00
  -8.670  0.0000E+00  0.0000E+00
  -8.660  0.0000E+00  0.0000E+00
  -8.650  0.0000E+00  0.0000E+00
  -8.640  0.0000E+00  0.0000E+00
  -8.630  0.0000E+00  0.0000E+00
  -8.620  0.0000E+00  0.0000E+00
  -8.610  0.0000E+00  0.0000E+00
  -8.600  0.0000E+00  0.0000E+00
  -8.590  0.0000E+00  0.0000E+00
  -8.580  0.0000E+00  0.0000E+00
  -8.570  0.0000E+00  0.0000E+00
  -8.560  0.0000E+00  0.0000E+00
  -8.550  0.0000E+00  0.0000E+00
  -8.540  0.0000E+00  0.0000E+00
  -8.530  0.0000E+00  0.0000E+00
  -8.520  0.0000E+00  0.0000E+00
  -8.510  0.0000E+00  0.0000E+00
  -8.500  0.0000E+00  0.0000E+00
  -8.490  0.0000E+00  0.0000E+00
  -8.480  0.0000E+00  0.0000E+00
  -8.470  0.0000E+00  0.0000E+00
  -8.460  0.0000E+00  0.0000E+00
  -8.450  0.0000E+00  0.0000E+00
  -8.440  0.0000E+00  0.0000E+00
  -8.430  0.0000E+00  0.0000E+00
  -8.420  0.0000E+00  0.0000E+00
  -8.410  0.0000E+00  0.0000E+00
  -8.400  0.0000E+00  0.0000E+00
  -8.390  0.0000E+00  0.0000E+00
  -8.380  0.0000E+00  0.0000E+00
  -8.370  0.0000E+00  0.0000E+00
  -8.360  0.0000E+00  0.0000E+00
  -8.350  0.0000E+00  0.0000E+00
  -8.340  0.0000E+00  0.0000E+00
  -8.330  0.0000E+00  0.0000E+00
  -8.320  0.0000E+00  0.0000E+00
  -8.310  0.0000E+00  0.0000E+00
  -8.300  0.0000E+00  0.0000E+00
  -8.290  0.0000E+00  0.0000E+00
  -8.280  0.0000E+00  0.0000E+00
  -8.270  0.0000E+00  0.0000E+00
  -8.260  0.0000E+00  0.0000E+00
  -8.250  0.0000E+00  0.0000E+00
  -8.240  0.0000E+00  0.0000E+00
  -8.230  0.0000E+00  0.0000E+00
  -8.220  0.0000E+00  0.0000E+00
  -8.210  0.0000E+00  0.0000E+00
  -8.200  0.0000E+00  0.0000E+00
  -8.190  0.0000E+00  0.0000E+00
  -8.180  0.0000E+00  0.0000E+00
  -8.170  0.0000E+00  0.0000E+00
  -8.160  0.0000E+00  0.0000E+00
  -8.150  0.0000E+00  0.0000E+00
  -8.140  0.0000E+00  0.0000E+00
  -8.130  0.0000E+00  0.0000E+00
  -8.120  0.0000E+00  0.0000E+00
  -8.110  0.0000E+00  0.0000E+00
  -8.100  0.0000E+00  0.0000E+00
  -8.090  0.0000E+00  0.0000E+00
  -8.080  0.0000E+00  0.0000E+00
  -8.070  0.0000E+00  0.0000E+00
  -8.060  0.0000E+00  0.0000E+00
  -8.050  0.0000E+00  0.0000E+00
  -8.040  0.0000E+00  0.0000E+00
  -8.030  0.0000E+00  0.0000E+00
  -8.020  0.0000E+00  0.0000E+00
  -8.010  0.0000E+00  0.0000E+00
  -8.000  0.0000E+00  0.0000E+00
  -7.990  0.0000E+00  0.0000E+00
  -7.980  0.0000E+00  0.0000E+00
  -7.970  0.0000E+00  0.0000E+00
  -7.960  0.0000E+00  0.0000E+00
  -7.950  0.0000E+00  0.0000E+00
  -7.940  0.0000E+00  0.0000E+00
  -7.930  0.0000E+00  0.0000E+00
  -7.920  0.0000E+00  0.0000E+00
  -7.910  0.0000E+00  0.0000E+00
  -7.900  0.0000E+00  0.0000E+00
  -7.890  0.0000E+00  0.0000E+00
  -7.880  0.0000E+00  0.0000E+00
  -7.870  0.0000E+00  0.0000E+00
  -7.860  0.0000E+00  0.0000E+00
  -7.850  0.0000E+00  0.0000E+00
  -7.840  0.0000E+00  0.0000E+00
  -7.830  0.0000E+00  0.0000E+00
  -7.820  0.0000E+00  0.0000E+00
  -7.810  0.0000E+00  0.0000E+00
  -7.800  0.0000E+00  0.0000E+00
  -7.790  0.0000E+00  0.0000E+00
  -7.780  0.0000E+00  0.0000E+00
  -7.770  0.0000E+00  0.0000E+00
  -7.760  0.0000E+00  0.0000E+00
  -7.750  0.0000E+00  0.0000E+00
  -7.740  0.0000E+00  0.0000E+00
  -7.730  0.0000E+00  0.0000E+00
  -7.720  0.0000E+00  0.0000E+00
  -7.710  0.0000E+00  0.0000E+00
  -7.700  0.0000E+00  0.0000E+00
  -7.690  0.0000E+00  0.0000E+00
  -7.680  0.0000E+00  0.0000E+00
  -7.670  0.0000E+00  0.0000E+00
  -7.660  0.0000E+00  0.0000E+00
  -7.650  0.0000E+00  0.0000E+00
  -7.640  0.0000E+00  0.0000E+00
  -7.630  0.0000E+00  0.0000E+00
  -7.620  0.0000E+00  0.0000E+00
  -7.610  0.0000E+00  0.0000E+00
  -7.600  0.0000E+00  0.0000E+00
  -7.590  0.0000E+00  0.0000E+00
  -7.580  0.0000E+00  0.0000E+00
  -7.570  0.0000E+00  0.0000E+00
  -7.560  0.0000E+00  0.0000E+00
  -7.550  0.0000E+00  0.0000E+00
  -7.540  0.0000E+00  0.0000E+00
  -7.530  0.0000E+00  0.0000E+00
  -7.520  0.0000E+00  0.0000E+00
  -7.510  0.0000E+00  0.0000E+00
  -7.500  0.0000E+00  0.0000E+00
  -7.490  0.0000E+00  0.0000E+00
  -7.480  0.0000E+00  0.0000E+00
  -7.470  0.0000E+00  0.0000E+00
  -7.460  0.0000E+00  0.0000E+00
  -7.450  0.0000E+00  0.0000E+00
  -7.440  0.0000E+00  0.0000E+00
  -7.430  0.0000E+00  0.0000E+00
  -7.420  0.0000E+00  0.0000E+00
  -7.410  0.0000E+00  0.0000E+00
  -7.400  0.0000E+00  0.0000E+00
  -7.390  0.0000E+00  0.0000E+00
  -7.380  0.0000E+00  0.0000E+00
  -7.370  0.0000E+00  0.0000E+00
  -7.360  0.0000E+00  0.0000E+00
  -7.350  0.0000E+00  0.0000E+00
  -7.340  0.0000E+00  0.0000E+00
  -7.330  0.0000E+00  0.0000E+00
  -7.320  0.0000E+00  0.0000E+00
  -7.310  0.0000E+00  0.0000E+00
  -7.300  0.0000E+00  0.0000E+00
  -7.290  0.0000E+00  0.0000E+00
  -7.280  0.0000E+00  0.0000E+00
  -7.270  0.0000E+00  0.0000E+00
  -7.260  0.0000E+00  0.0000E+00
  -7.250  0.0000E+00  0.0000E+00
  -7.240  0.0000E+00  0.0000E+00
  -7.230  0.0000E+00  0.0000E+00
  -7.220  0.0000E+00  0.0000E+00
  -7.210  0.0000E+00  0.0000E+00
  -7.200  0.0000E+00  0.0000E+00
  -7.190  0.0000E+00  0.0000E+00
  -7.180  0.0000E+00  0.0000E+00
  -7.170  0.0000E+00  0.0000E+00
  -7.160  0.0000E+00  0.0000E+00
  -7.150  0.0000E+00  0.0000E+00
  -7.140  0.0000E+00  0.0000E+00
  -7.130  0.0000E+00  0.0000E+00
  -7.120  0.0000E+00  0.0000E+00
  -7.110  0.0000E+00  0.0000E+00
  -7.100  0.0000E+00  0.0000E+00
  -7.090  0.0000E+00  0.0000E+00
  -7.080  0.0000E+00  0.0000E+00
  -7.070  0.0000E+00  0.0000E+00
  -7.060  0.0000E+00  0.0000E+00
  -7.050  0.0000E+00  0.0000E+00
  -7.040  0.0000E+00  0.0000E+00
  -7.030  0.0000E+00  0.0000E+00
  -7.020  0.0000E+00  0.0000E+00
  -7.010  0.0000E+00  0.0000E+00
  -7.000  0.0000E+00  0.0000E+00
  -6.990  0.0000E+00  0.0000E+00
  -6.980  0.0000E+00  0.0000E+00
  -6.970  0.0000E+00  0.0000E+00
  -6.960  0.0000E+00  0.0000E+00
  -6.950  0.0000E+00  0.0000E+00
  -6.940  0.0000E+00  0.0000E+00
  -6.930  0.0000E+00  0.0000E+00
  -6.920  0.0000E+00  0.0000E+00
  -6.910  0.0000E+00  0.0000E+00
  -6.900  0.0000E+00  0.0000E+00
  -6.890  0.0000E+00  0.0000E+00
  -6.880  0.0000E+00  0.0000E+00
  -6.870  0.0000E+00  0.0000E+00
  -6.860  0.0000E+00  0.0000E+00
  -6.850  0.0000E+00  0.0000E+00
  -6.840  0.0000E+00  0.0000E+00
  -6.830  0.0000E+00  0.0000E+00
  -6.820  0.0000E+00  0.0000E+00
  -6.810  0.0000E+00  0.0000E+00
  -6.800  0.0000E+00  0.0000E+00
  -6.790  0.0000E+00  0.0000E+00
  -6.780  0.0000E+00  0.0000E+00
  -6.770  0.0000E+00  0.0000E+00
  -6.760  0.0000E+00  0.0000E+00
  -6.750  0.0000E+00  0.0000E+00
  -6.740  0.0000E+00  0.0000E+00
  -6.730  0.0000E+00  0.0000E+00
  -6.720  0.0000E+00  0.0000E+00
  -6.710  0.0000E+00  0.0000E+00
  -6.700  0.0000E+00  0.0000E+00
  -6.690  0.0000E+00  0.0000E+00
  -6.680  0.0000E+00  0.0000E+00
  -6.670  0.0000E+00  0.0000E+00
  -6.660  0.0000E+00  0.0000E+00
  -6.650  0.0000E+00  0.0000E+00
  -6.640  0.0000E+00  0.0000E+00
  -6.630  0.0000E+00  0.0000E+00
  -6.620  0.0000E+00  0.0000E+00
  -6.610  0.0000E+00  0.0000E+00
  -6.600  0.0000E+00  0.0000E+00
  -6.590  0.0000E+00  0.0000E+00
  -6.580  0.0000E+00  0.0000E+00
  -6.570  0.0000E+00  0.0000E+00
  -6.560  0.0000E+00  0.0000E+00
  -6.550  0.0000E+00  0.0000E+00
  -6.540  0.0000E+00  0.0000E+00
  -6.530  0.0000E+00  0.0000E+00
  -6.520  0.0000E+00  0.0000E+00
  -6.510  0.0000E+00  0.0000E+00
  -6.500  0.0000E+00  0.0000E+00
  -6.490  0.0000E+00  0.0000E+00
  -6.480  0.0000E+00  0.0000E+00
  -6.470  0.0000E+00  0.0000E+00
  -6.460  0.0000E+00  0.0000E+00
  -6.450  0.0000E+00  0.0000E+00
  -6.440  0.0000E+00  0.0000E+00
  -6.430  0.0000E+00  0.0000E+00
  -6.420  0.0000E+00  0.0000E+00
  -6.410  0.0000E+00  0.0000E+00
  -6.400  0.0000E+00  0.0000E+00
  -6.390  0.0000E+00  0.0000E+00
  -6.380  0.0000E+00  0.0000E+00
  -6.370  0.0000E+00  0.0000E+00
  -6.360  0.0000E+00  0.0000E+00
  -6.350  0.0000E+00  0.0000E+00
  -6.340  0.0000E+00  0.0000E+00
  -6.330  0.0000E+00  0.0000E+00
  -6.320  0.0000E+00  0.0000E+00
  -6.310  0.0000E+00  0.0000E+00
  -6.300  0.0000E+00  0.0000E+00
  -6.290  0.0000E+00  0.0000E+00
  -6.280  0.0000E+00  0.0000E+00
  -6.270  0.0000E+00  0.0000E+00
  -6.260  0.0000E+00  0.0000E+00
  -6.250  0.0000E+00  0.0000E+00
  -6.240  0.0000E+00  0.0000E+00
  -6.230  0.0000E+00  0.0000E+00
  -6.220  0.0000E+00  0.0000E+00
  -6.210  0.0000E+00  0.0000E+00
  -6.200  0.0000E+00  0.0000E+00
  -6.190  0.0000E+00  0.0000E+00
  -6.180  0.0000E+00  0.0000E+00
  -6.170  0.0000E+00  0.0000E+00
  -6.160  0.0000E+00  0.0000E+00
  -6.150  0.0000E+00  0.0000E+00
  -6.140  0.0000E+00  0.0000E+00
  -6.130  0.0000E+00  0.0000E+00
  -6.120  0.0000E+00  0.0000E+00
  -6.110  0.0000E+00  0.0000E+00
  -6.100  0.0000E+00  0.0000E+00
  -6.090  0.0000E+00  0.0000E+00
  -6.080  0.0000E+00  0.0000E+00
  -6.070  0.0000E+00  0.0000E+00
  -6.060  0.0000E+00  0.0000E+00
  -6.050  0.0000E+00  0.0000E+00
  -6.040  0.0000E+00  0.0000E+00
  -6.030  0.0000E+00  0.0000E+00
  -6.020  0.0000E+00  0.0000E+00
  -6.010  0.0000E+00  0.0000E+00
  -6.000  0.0000E+00  0.0000E+00
  -5.990  0.0000E+00  0.0000E+00
  -5.980  0.0000E+00  0.0000E+00
  -5.970  0.0000E+00  0.0000E+00
  -5.960  0.0000E+00  0.0000E+00
  -5.950  0.0000E+00  0.0000E+00
  -5.940  0.0000E+00  0.0000E+00
  -5.930  0.0000E+00  0.0000E+00
  -5.920  0.0000E+00  0.0000E+00
  -5.910  0.0000E+00  0.0000E+00
  -5.900  0.0000E+00  0.0000E+00
  -5.890  0.0000E+00  0.0000E+00
  -5.880  0.0000E+00  0.0000E+00
  -5.870  0.0000E+00  0.0000E+00
  -5.860  0.0000E+00  0.0000E+00
  -5.850  0.0000E+00  0.0000E+00
  -5.840  0.0000E+00  0.0000E+00
  -5.830  0.0000E+00  0.0000E+00
  -5.820  0.5866E-04  0.6327E-07
  -5.810  0.9817E-03  0.4331E-05
  -5.800  0.3026E-02  0.2343E-04
  -5.790  0.6190E-02  0.6858E-04
  -5.780  0.1048E-01  0.1510E-03
  -5.770  0.1588E-01  0.2818E-03
  -5.760  0.2241E-01  0.4724E-03
  -5.750  0.3006E-01  0.7338E-03
  -5.740  0.3883E-01  0.1077E-02
  -5.730  0.5573E-01  0.1517E-02
  -5.720  0.1237E+00  0.2462E-02
  -5.710  0.1335E+00  0.3796E-02
  -5.700  0.8521E-01  0.4938E-02
  -5.690  0.8863E-01  0.5801E-02
  -5.680  0.9336E-01  0.6711E-02
  -5.670  0.9819E-01  0.7669E-02
  -5.660  0.1031E+00  0.8675E-02
  -5.650  0.1081E+00  0.9731E-02
  -5.640  0.1132E+00  0.1084E-01
  -5.630  0.1185E+00  0.1200E-01
  -5.620  0.1238E+00  0.1321E-01
  -5.610  0.1292E+00  0.1447E-01
  -5.600  0.1347E+00  0.1579E-01
  -5.590  0.1403E+00  0.1717E-01
  -5.580  0.1460E+00  0.1860E-01
  -5.570  0.1542E+00  0.2010E-01
  -5.560  0.1625E+00  0.2168E-01
  -5.550  0.1698E+00  0.2334E-01
  -5.540  0.1761E+00  0.2507E-01
  -5.530  0.1815E+00  0.2686E-01
  -5.520  0.1860E+00  0.2870E-01
  -5.510  0.1895E+00  0.3058E-01
  -5.500  0.1920E+00  0.3249E-01
  -5.490  0.1936E+00  0.3441E-01
  -5.480  0.1892E+00  0.3634E-01
  -5.470  0.1838E+00  0.3820E-01
  -5.460  0.1828E+00  0.4003E-01
  -5.450  0.1854E+00  0.4187E-01
  -5.440  0.1884E+00  0.4374E-01
  -5.430  0.1915E+00  0.4564E-01
  -5.420  0.1946E+00  0.4757E-01
  -5.410  0.1979E+00  0.4953E-01
  -5.400  0.2012E+00  0.5153E-01
  -5.390  0.2046E+00  0.5356E-01
  -5.380  0.2081E+00  0.5562E-01
  -5.370  0.2117E+00  0.5772E-01
  -5.360  0.2154E+00  0.5985E-01
  -5.350  0.2191E+00  0.6203E-01
  -5.340  0.2230E+00  0.6424E-01
  -5.330  0.2269E+00  0.6649E-01
  -5.320  0.2309E+00  0.6878E-01
  -5.310  0.2349E+00  0.7111E-01
  -5.300  0.2388E+00  0.7347E-01
  -5.290  0.2428E+00  0.7588E-01
  -5.280  0.2468E+00  0.7833E-01
  -5.270  0.2509E+00  0.8082E-01
  -5.260  0.2549E+00  0.8335E-01
  -5.250  0.2589E+00  0.8592E-01
  -5.240  0.2625E+00  0.8853E-01
  -5.230  0.2646E+00  0.9116E-01
  -5.220  0.2655E+00  0.9381E-01
  -5.210  0.2659E+00  0.9647E-01
  -5.200  0.2680E+00  0.9914E-01
  -5.190  0.2700E+00  0.1018E+00
  -5.180  0.2720E+00  0.1045E+00
  -5.170  0.2739E+00  0.1073E+00
  -5.160  0.2758E+00  0.1100E+00
  -5.150  0.2776E+00  0.1128E+00
  -5.140  0.2794E+00  0.1156E+00
  -5.130  0.2811E+00  0.1184E+00
  -5.120  0.2828E+00  0.1212E+00
  -5.110  0.2844E+00  0.1240E+00
  -5.100  0.2860E+00  0.1269E+00
  -5.090  0.2870E+00  0.1297E+00
  -5.080  0.2877E+00  0.1326E+00
  -5.070  0.2888E+00  0.1355E+00
  -5.060  0.2900E+00  0.1384E+00
  -5.050  0.2916E+00  0.1413E+00
  -5.040  0.2934E+00  0.1442E+00
  -5.030  0.2954E+00  0.1472E+00
  -5.020  0.2978E+00  0.1501E+00
  -5.010  0.3003E+00  0.1531E+00
  -5.000  0.3031E+00  0.1561E+00
  -4.990  0.3062E+00  0.1592E+00
  -4.980  0.3092E+00  0.1623E+00
  -4.970  0.3123E+00  0.1654E+00
  -4.960  0.3154E+00  0.1685E+00
  -4.950  0.3186E+00  0.1717E+00
  -4.940  0.3217E+00  0.1749E+00
  -4.930  0.3249E+00  0.1781E+00
  -4.920  0.3281E+00  0.1814E+00
  -4.910  0.3313E+00  0.1847E+00
  -4.900  0.3345E+00  0.1880E+00
  -4.890  0.3378E+00  0.1914E+00
  -4.880  0.3410E+00  0.1948E+00
  -4.870  0.3443E+00  0.1982E+00
  -4.860  0.3476E+00  0.2017E+00
  -4.850  0.3508E+00  0.2051E+00
  -4.840  0.3537E+00  0.2087E+00
  -4.830  0.3561E+00  0.2122E+00
  -4.820  0.3582E+00  0.2158E+00
  -4.810  0.3599E+00  0.2194E+00
  -4.800  0.3612E+00  0.2230E+00
  -4.790  0.3622E+00  0.2266E+00
  -4.780  0.3628E+00  0.2302E+00
  -4.770  0.3630E+00  0.2339E+00
  -4.760  0.3630E+00  0.2375E+00
  -4.750  0.3652E+00  0.2411E+00
  -4.740  0.3677E+00  0.2448E+00
  -4.730  0.3696E+00  0.2485E+00
  -4.720  0.3715E+00  0.2522E+00
  -4.710  0.3733E+00  0.2559E+00
  -4.700  0.3752E+00  0.2597E+00
  -4.690  0.3771E+00  0.2634E+00
  -4.680  0.3790E+00  0.2672E+00
  -4.670  0.3809E+00  0.2710E+00
  -4.660  0.3828E+00  0.2748E+00
  -4.650  0.3847E+00  0.2786E+00
  -4.640  0.3867E+00  0.2825E+00
  -4.630  0.3886E+00  0.2864E+00
  -4.620  0.3906E+00  0.2903E+00
  -4.610  0.3925E+00  0.2942E+00
  -4.600  0.3944E+00  0.2981E+00
  -4.590  0.3963E+00  0.3021E+00
  -4.580  0.3981E+00  0.3061E+00
  -4.570  0.4000E+00  0.3100E+00
  -4.560  0.4018E+00  0.3141E+00
  -4.550  0.4036E+00  0.3181E+00
  -4.540  0.4052E+00  0.3221E+00
  -4.530  0.4069E+00  0.3262E+00
  -4.520  0.4089E+00  0.3303E+00
  -4.510  0.4111E+00  0.3344E+00
  -4.500  0.4134E+00  0.3385E+00
  -4.490  0.4159E+00  0.3426E+00
  -4.480  0.4185E+00  0.3468E+00
  -4.470  0.4211E+00  0.3510E+00
  -4.460  0.4237E+00  0.3552E+00
  -4.450  0.4264E+00  0.3595E+00
  -4.440  0.4292E+00  0.3638E+00
  -4.430  0.4321E+00  0.3681E+00
  -4.420  0.4350E+00  0.3724E+00
  -4.410  0.4379E+00  0.3768E+00
  -4.400  0.4409E+00  0.3812E+00
  -4.390  0.4439E+00  0.3856E+00
  -4.380  0.4469E+00  0.3900E+00
  -4.370  0.4500E+00  0.3945E+00
  -4.360  0.4531E+00  0.3990E+00
  -4.350  0.4562E+00  0.4036E+00
  -4.340  0.4593E+00  0.4082E+00
  -4.330  0.4625E+00  0.4128E+00
  -4.320  0.4657E+00  0.4174E+00
  -4.310  0.4683E+00  0.4221E+00
  -4.300  0.4702E+00  0.4268E+00
  -4.290  0.4717E+00  0.4315E+00
  -4.280  0.4729E+00  0.4362E+00
  -4.270  0.4747E+00  0.4409E+00
  -4.260  0.4766E+00  0.4457E+00
  -4.250  0.4785E+00  0.4505E+00
  -4.240  0.4803E+00  0.4553E+00
  -4.230  0.4820E+00  0.4601E+00
  -4.220  0.4837E+00  0.4649E+00
  -4.210  0.4853E+00  0.4698E+00
  -4.200  0.4869E+00  0.4746E+00
  -4.190  0.4884E+00  0.4795E+00
  -4.180  0.4899E+00  0.4844E+00
  -4.170  0.4919E+00  0.4893E+00
  -4.160  0.4940E+00  0.4942E+00
  -4.150  0.4965E+00  0.4992E+00
  -4.140  0.4992E+00  0.5041E+00
  -4.130  0.5023E+00  0.5092E+00
  -4.120  0.5051E+00  0.5142E+00
  -4.110  0.5077E+00  0.5193E+00
  -4.100  0.5103E+00  0.5243E+00
  -4.090  0.5130E+00  0.5295E+00
  -4.080  0.5157E+00  0.5346E+00
  -4.070  0.5184E+00  0.5398E+00
  -4.060  0.5212E+00  0.5450E+00
  -4.050  0.5239E+00  0.5502E+00
  -4.040  0.5267E+00  0.5555E+00
  -4.030  0.5295E+00  0.5607E+00
  -4.020  0.5323E+00  0.5660E+00
  -4.010  0.5351E+00  0.5714E+00
  -4.000  0.5379E+00  0.5767E+00
  -3.990  0.5408E+00  0.5821E+00
  -3.980  0.5436E+00  0.5876E+00
  -3.970  0.5465E+00  0.5930E+00
  -3.960  0.5494E+00  0.5985E+00
  -3.950  0.5523E+00  0.6040E+00
  -3.940  0.5552E+00  0.6095E+00
  -3.930  0.5582E+00  0.6151E+00
  -3.920  0.5611E+00  0.6207E+00
  -3.910  0.5641E+00  0.6263E+00
  -3.900  0.5670E+00  0.6320E+00
  -3.890  0.5701E+00  0.6377E+00
  -3.880  0.5736E+00  0.6434E+00
  -3.870  0.5772E+00  0.6491E+00
  -3.860  0.5810E+00  0.6549E+00
  -3.850  0.5849E+00  0.6608E+00
  -3.840  0.5888E+00  0.6666E+00
  -3.830  0.5929E+00  0.6725E+00
  -3.820  0.5971E+00  0.6785E+00
  -3.810  0.6014E+00  0.6845E+00
  -3.800  0.6057E+00  0.6905E+00
  -3.790  0.6102E+00  0.6966E+00
  -3.780  0.6148E+00  0.7027E+00
  -3.770  0.6195E+00  0.7089E+00
  -3.760  0.6243E+00  0.7151E+00
  -3.750  0.6293E+00  0.7214E+00
  -3.740  0.6343E+00  0.7277E+00
  -3.730  0.6394E+00  0.7341E+00
  -3.720  0.6445E+00  0.7405E+00
  -3.710  0.6497E+00  0.7470E+00
  -3.700  0.6548E+00  0.7535E+00
  -3.690  0.6600E+00  0.7601E+00
  -3.680  0.6651E+00  0.7667E+00
  -3.670  0.6701E+00  0.7734E+00
  -3.660  0.6749E+00  0.7801E+00
  -3.650  0.6807E+00  0.7869E+00
  -3.640  0.6865E+00  0.7937E+00
  -3.630  0.6925E+00  0.8006E+00
  -3.620  0.6986E+00  0.8075E+00
  -3.610  0.7048E+00  0.8146E+00
  -3.600  0.7112E+00  0.8216E+00
  -3.590  0.7176E+00  0.8288E+00
  -3.580  0.7242E+00  0.8360E+00
  -3.570  0.7310E+00  0.8433E+00
  -3.560  0.7378E+00  0.8506E+00
  -3.550  0.7448E+00  0.8580E+00
  -3.540  0.7535E+00  0.8655E+00
  -3.530  0.7846E+00  0.8732E+00
  -3.520  0.8192E+00  0.8812E+00
  -3.510  0.8333E+00  0.8895E+00
  -3.500  0.8461E+00  0.8979E+00
  -3.490  0.8575E+00  0.9064E+00
  -3.480  0.8677E+00  0.9150E+00
  -3.470  0.8766E+00  0.9238E+00
  -3.460  0.8841E+00  0.9326E+00
  -3.450  0.8904E+00  0.9414E+00
  -3.440  0.8954E+00  0.9504E+00
  -3.430  0.8987E+00  0.9594E+00
  -3.420  0.8964E+00  0.9683E+00
  -3.410  0.8874E+00  0.9773E+00
  -3.400  0.8715E+00  0.9861E+00
  -3.390  0.8645E+00  0.9947E+00
  -3.380  0.8618E+00  0.1003E+01
  -3.370  0.8593E+00  0.1012E+01
  -3.360  0.8568E+00  0.1021E+01
  -3.350  0.8545E+00  0.1029E+01
  -3.340  0.8524E+00  0.1038E+01
  -3.330  0.8503E+00  0.1046E+01
  -3.320  0.8485E+00  0.1055E+01
  -3.310  0.8467E+00  0.1063E+01
  -3.300  0.8451E+00  0.1072E+01
  -3.290  0.8437E+00  0.1080E+01
  -3.280  0.8423E+00  0.1088E+01
  -3.270  0.8411E+00  0.1097E+01
  -3.260  0.8398E+00  0.1105E+01
  -3.250  0.8384E+00  0.1114E+01
  -3.240  0.8370E+00  0.1122E+01
  -3.230  0.8355E+00  0.1130E+01
  -3.220  0.8339E+00  0.1139E+01
  -3.210  0.8322E+00  0.1147E+01
  -3.200  0.8305E+00  0.1155E+01
  -3.190  0.8287E+00  0.1164E+01
  -3.180  0.8202E+00  0.1172E+01
  -3.170  0.8142E+00  0.1180E+01
  -3.160  0.8114E+00  0.1188E+01
  -3.150  0.8104E+00  0.1196E+01
  -3.140  0.8091E+00  0.1204E+01
  -3.130  0.8073E+00  0.1213E+01
  -3.120  0.8050E+00  0.1221E+01
  -3.110  0.8022E+00  0.1229E+01
  -3.100  0.7994E+00  0.1237E+01
  -3.090  0.7984E+00  0.1245E+01
  -3.080  0.7992E+00  0.1253E+01
  -3.070  0.8018E+00  0.1261E+01
  -3.060  0.8063E+00  0.1269E+01
  -3.050  0.8081E+00  0.1277E+01
  -3.040  0.8025E+00  0.1285E+01
  -3.030  0.7959E+00  0.1293E+01
  -3.020  0.7895E+00  0.1301E+01
  -3.010  0.7833E+00  0.1309E+01
  -3.000  0.7774E+00  0.1316E+01
  -2.990  0.7717E+00  0.1324E+01
  -2.980  0.7662E+00  0.1332E+01
  -2.970  0.7610E+00  0.1339E+01
  -2.960  0.7561E+00  0.1347E+01
  -2.950  0.7514E+00  0.1355E+01
  -2.940  0.7469E+00  0.1362E+01
  -2.930  0.7427E+00  0.1369E+01
  -2.920  0.7388E+00  0.1377E+01
  -2.910  0.7346E+00  0.1384E+01
  -2.900  0.7298E+00  0.1392E+01
  -2.890  0.7252E+00  0.1399E+01
  -2.880  0.7207E+00  0.1406E+01
  -2.870  0.7164E+00  0.1413E+01
  -2.860  0.7123E+00  0.1420E+01
  -2.850  0.7082E+00  0.1428E+01
  -2.840  0.7043E+00  0.1435E+01
  -2.830  0.7004E+00  0.1442E+01
  -2.820  0.6967E+00  0.1449E+01
  -2.810  0.6931E+00  0.1456E+01
  -2.800  0.6897E+00  0.1462E+01
  -2.790  0.6864E+00  0.1469E+01
  -2.780  0.6832E+00  0.1476E+01
  -2.770  0.6801E+00  0.1483E+01
  -2.760  0.6772E+00  0.1490E+01
  -2.750  0.6744E+00  0.1497E+01
  -2.740  0.6718E+00  0.1503E+01
  -2.730  0.6693E+00  0.1510E+01
  -2.720  0.6669E+00  0.1517E+01
  -2.710  0.6647E+00  0.1523E+01
  -2.700  0.6624E+00  0.1530E+01
  -2.690  0.6601E+00  0.1537E+01
  -2.680  0.6578E+00  0.1543E+01
  -2.670  0.6555E+00  0.1550E+01
  -2.660  0.6531E+00  0.1556E+01
  -2.650  0.6506E+00  0.1563E+01
  -2.640  0.6482E+00  0.1569E+01
  -2.630  0.6457E+00  0.1576E+01
  -2.620  0.6431E+00  0.1582E+01
  -2.610  0.6405E+00  0.1589E+01
  -2.600  0.6379E+00  0.1595E+01
  -2.590  0.6353E+00  0.1601E+01
  -2.580  0.6326E+00  0.1608E+01
  -2.570  0.6298E+00  0.1614E+01
  -2.560  0.6273E+00  0.1620E+01
  -2.550  0.6268E+00  0.1627E+01
  -2.540  0.6287E+00  0.1633E+01
  -2.530  0.6330E+00  0.1639E+01
  -2.520  0.6398E+00  0.1646E+01
  -2.510  0.6490E+00  0.1652E+01
  -2.500  0.6606E+00  0.1659E+01
  -2.490  0.6668E+00  0.1665E+01
  -2.480  0.6041E+00  0.1671E+01
  -2.470  0.6020E+00  0.1677E+01
  -2.460  0.5998E+00  0.1683E+01
  -2.450  0.5976E+00  0.1689E+01
  -2.440  0.5954E+00  0.1695E+01
  -2.430  0.5932E+00  0.1701E+01
  -2.420  0.5909E+00  0.1707E+01
  -2.410  0.5886E+00  0.1713E+01
  -2.400  0.5862E+00  0.1719E+01
  -2.390  0.5839E+00  0.1725E+01
  -2.380  0.5815E+00  0.1731E+01
  -2.370  0.5791E+00  0.1736E+01
  -2.360  0.5766E+00  0.1742E+01
  -2.350  0.5741E+00  0.1748E+01
  -2.340  0.5716E+00  0.1754E+01
  -2.330  0.5691E+00  0.1759E+01
  -2.320  0.5665E+00  0.1765E+01
  -2.310  0.5640E+00  0.1771E+01
  -2.300  0.5614E+00  0.1776E+01
  -2.290  0.5587E+00  0.1782E+01
  -2.280  0.5561E+00  0.1788E+01
  -2.270  0.5534E+00  0.1793E+01
  -2.260  0.5506E+00  0.1799E+01
  -2.250  0.5479E+00  0.1804E+01
  -2.240  0.5451E+00  0.1810E+01
  -2.230  0.5433E+00  0.1815E+01
  -2.220  0.5423E+00  0.1820E+01
  -2.210  0.5409E+00  0.1826E+01
  -2.200  0.5391E+00  0.1831E+01
  -2.190  0.5370E+00  0.1837E+01
  -2.180  0.5347E+00  0.1842E+01
  -2.170  0.5320E+00  0.1847E+01
  -2.160  0.5291E+00  0.1853E+01
  -2.150  0.5260E+00  0.1858E+01
  -2.140  0.5225E+00  0.1863E+01
  -2.130  0.5188E+00  0.1868E+01
  -2.120  0.5148E+00  0.1874E+01
  -2.110  0.5091E+00  0.1879E+01
  -2.100  0.5025E+00  0.1884E+01
  -2.090  0.4951E+00  0.1889E+01
  -2.080  0.4869E+00  0.1894E+01
  -2.070  0.4780E+00  0.1898E+01
  -2.060  0.4683E+00  0.1903E+01
  -2.050  0.4578E+00  0.1908E+01
  -2.040  0.4466E+00  0.1912E+01
  -2.030  0.4346E+00  0.1917E+01
  -2.020  0.4218E+00  0.1921E+01
  -2.010  0.4083E+00  0.1925E+01
  -2.000  0.3935E+00  0.1929E+01
  -1.990  0.3768E+00  0.1933E+01
  -1.980  0.3606E+00  0.1937E+01
  -1.970  0.3449E+00  0.1940E+01
  -1.960  0.3297E+00  0.1944E+01
  -1.950  0.3154E+00  0.1947E+01
  -1.940  0.3037E+00  0.1950E+01
  -1.930  0.2922E+00  0.1953E+01
  -1.920  0.2809E+00  0.1956E+01
  -1.910  0.2697E+00  0.1959E+01
  -1.900  0.2587E+00  0.1961E+01
  -1.890  0.2480E+00  0.1964E+01
  -1.880  0.2374E+00  0.1966E+01
  -1.870  0.2270E+00  0.1968E+01
  -1.860  0.2167E+00  0.1971E+01
  -1.850  0.2067E+00  0.1973E+01
  -1.840  0.1969E+00  0.1975E+01
  -1.830  0.1872E+00  0.1977E+01
  -1.820  0.1777E+00  0.1979E+01
  -1.810  0.1684E+00  0.1980E+01
  -1.800  0.1593E+00  0.1982E+01
  -1.790  0.1504E+00  0.1983E+01
  -1.780  0.1417E+00  0.1985E+01
  -1.770  0.1332E+00  0.1986E+01
  -1.760  0.1248E+00  0.1988E+01
  -1.750  0.1166E+00  0.1989E+01
  -1.740  0.1087E+00  0.1990E+01
  -1.730  0.1010E+00  0.1991E+01
  -1.720  0.9353E-01  0.1992E+01
  -1.710  0.8636E-01  0.1993E+01
  -1.700  0.7947E-01  0.1994E+01
  -1.690  0.7285E-01  0.1994E+01
  -1.680  0.6650E-01  0.1995E+01
  -1.670  0.6042E-01  0.1996E+01
  -1.660  0.5461E-01  0.1996E+01
  -1.650  0.4907E-01  0.1997E+01
  -1.640  0.4381E-01  0.1997E+01
  -1.630  0.3881E-01  0.1998E+01
  -1.620  0.3409E-01  0.1998E+01
  -1.610  0.2964E-01  0.1998E+01
  -1.600  0.2562E-01  0.1999E+01
  -1.590  0.2208E-01  0.1999E+01
  -1.580  0.1900E-01  0.1999E+01
  -1.570  0.1659E-01  0.1999E+01
  -1.560  0.1529E-01  0.2000E+01
  -1.550  0.1431E-01  0.2000E+01
  -1.540  0.1365E-01  0.2000E+01
  -1.530  0.1332E-01  0.2000E+01
  -1.520  0.1331E-01  0.2000E+01
  -1.510  0.1363E-01  0.2000E+01
  -1.500  0.1427E-01  0.2000E+01
  -1.490  0.1523E-01  0.2000E+01
  -1.480  0.1652E-01  0.2001E+01
  -1.470  0.1827E-01  0.2001E+01
  -1.460  0.2054E-01  0.2001E+01
  -1.450  0.2333E-01  0.2001E+01
  -1.440  0.2663E-01  0.2001E+01
  -1.430  0.3042E-01  0.2002E+01
  -1.420  0.3452E-01  0.2002E+01
  -1.410  0.3891E-01  0.2002E+01
  -1.400  0.4358E-01  0.2003E+01
  -1.390  0.4854E-01  0.2003E+01
  -1.380  0.5379E-01  0.2004E+01
  -1.370  0.5932E-01  0.2004E+01
  -1.360  0.6513E-01  0.2005E+01
  -1.350  0.7124E-01  0.2006E+01
  -1.340  0.7756E-01  0.2006E+01
  -1.330  0.8404E-01  0.2007E+01
  -1.320  0.9066E-01  0.2008E+01
  -1.310  0.9744E-01  0.2009E+01
  -1.300  0.1044E+00  0.2010E+01
  -1.290  0.1114E+00  0.2011E+01
  -1.280  0.1187E+00  0.2012E+01
  -1.270  0.1260E+00  0.2014E+01
  -1.260  0.1335E+00  0.2015E+01
  -1.250  0.1412E+00  0.2016E+01
  -1.240  0.1490E+00  0.2018E+01
  -1.230  0.1570E+00  0.2019E+01
  -1.220  0.1651E+00  0.2021E+01
  -1.210  0.1734E+00  0.2022E+01
  -1.200  0.1818E+00  0.2024E+01
  -1.190  0.1903E+00  0.2026E+01
  -1.180  0.1990E+00  0.2028E+01
  -1.170  0.2079E+00  0.2030E+01
  -1.160  0.2169E+00  0.2032E+01
  -1.150  0.2261E+00  0.2034E+01
  -1.140  0.2354E+00  0.2037E+01
  -1.130  0.2448E+00  0.2039E+01
  -1.120  0.2544E+00  0.2042E+01
  -1.110  0.2642E+00  0.2044E+01
  -1.100  0.2741E+00  0.2047E+01
  -1.090  0.2841E+00  0.2050E+01
  -1.080  0.2943E+00  0.2053E+01
  -1.070  0.3046E+00  0.2056E+01
  -1.060  0.3151E+00  0.2059E+01
  -1.050  0.3258E+00  0.2062E+01
  -1.040  0.3395E+00  0.2065E+01
  -1.030  0.3551E+00  0.2069E+01
  -1.020  0.3708E+00  0.2072E+01
  -1.010  0.3864E+00  0.2076E+01
  -1.000  0.4021E+00  0.2080E+01
  -0.990  0.4177E+00  0.2084E+01
  -0.980  0.4334E+00  0.2088E+01
  -0.970  0.4490E+00  0.2093E+01
  -0.960  0.4646E+00  0.2097E+01
  -0.950  0.4802E+00  0.2102E+01
  -0.940  0.4958E+00  0.2107E+01
  -0.930  0.5110E+00  0.2112E+01
  -0.920  0.5223E+00  0.2117E+01
  -0.910  0.5318E+00  0.2122E+01
  -0.900  0.5410E+00  0.2128E+01
  -0.890  0.5499E+00  0.2133E+01
  -0.880  0.5586E+00  0.2139E+01
  -0.870  0.5669E+00  0.2144E+01
  -0.860  0.5750E+00  0.2150E+01
  -0.850  0.5827E+00  0.2156E+01
  -0.840  0.5894E+00  0.2162E+01
  -0.830  0.5963E+00  0.2168E+01
  -0.820  0.6046E+00  0.2174E+01
  -0.810  0.6150E+00  0.2180E+01
  -0.800  0.6273E+00  0.2186E+01
  -0.790  0.6417E+00  0.2192E+01
  -0.780  0.6581E+00  0.2199E+01
  -0.770  0.6764E+00  0.2206E+01
  -0.760  0.6968E+00  0.2212E+01
  -0.750  0.7192E+00  0.2220E+01
  -0.740  0.7436E+00  0.2227E+01
  -0.730  0.7700E+00  0.2234E+01
  -0.720  0.8365E+00  0.2242E+01
  -0.710  0.8780E+00  0.2251E+01
  -0.700  0.8901E+00  0.2260E+01
  -0.690  0.9319E+00  0.2269E+01
  -0.680  0.9776E+00  0.2278E+01
  -0.670  0.1027E+01  0.2288E+01
  -0.660  0.1080E+01  0.2299E+01
  -0.650  0.1137E+01  0.2310E+01
  -0.640  0.1200E+01  0.2322E+01
  -0.630  0.1279E+01  0.2334E+01
  -0.620  0.1375E+01  0.2347E+01
  -0.610  0.1485E+01  0.2362E+01
  -0.600  0.1545E+01  0.2377E+01
  -0.590  0.1551E+01  0.2392E+01
  -0.580  0.1551E+01  0.2408E+01
  -0.570  0.1547E+01  0.2423E+01
  -0.560  0.1537E+01  0.2439E+01
  -0.550  0.1507E+01  0.2454E+01
  -0.540  0.1478E+01  0.2469E+01
  -0.530  0.1457E+01  0.2484E+01
  -0.520  0.1441E+01  0.2498E+01
  -0.510  0.1425E+01  0.2513E+01
  -0.500  0.1408E+01  0.2527E+01
  -0.490  0.1389E+01  0.2541E+01
  -0.480  0.1370E+01  0.2554E+01
  -0.470  0.1350E+01  0.2568E+01
  -0.460  0.1329E+01  0.2581E+01
  -0.450  0.1307E+01  0.2595E+01
  -0.440  0.1284E+01  0.2608E+01
  -0.430  0.1260E+01  0.2620E+01
  -0.420  0.1237E+01  0.2633E+01
  -0.410  0.1213E+01  0.2645E+01
  -0.400  0.1189E+01  0.2657E+01
  -0.390  0.1165E+01  0.2669E+01
  -0.380  0.1141E+01  0.2680E+01
  -0.370  0.1117E+01  0.2692E+01
  -0.360  0.1093E+01  0.2703E+01
  -0.350  0.1067E+01  0.2714E+01
  -0.340  0.1042E+01  0.2724E+01
  -0.330  0.1019E+01  0.2734E+01
  -0.320  0.9961E+00  0.2744E+01
  -0.310  0.9744E+00  0.2754E+01
  -0.300  0.9537E+00  0.2764E+01
  -0.290  0.9340E+00  0.2773E+01
  -0.280  0.9152E+00  0.2783E+01
  -0.270  0.8974E+00  0.2792E+01
  -0.260  0.8805E+00  0.2801E+01
  -0.250  0.8646E+00  0.2809E+01
  -0.240  0.8496E+00  0.2818E+01
  -0.230  0.8355E+00  0.2826E+01
  -0.220  0.8224E+00  0.2835E+01
  -0.210  0.8103E+00  0.2843E+01
  -0.200  0.7992E+00  0.2851E+01
  -0.190  0.7893E+00  0.2859E+01
  -0.180  0.7803E+00  0.2867E+01
  -0.170  0.7715E+00  0.2874E+01
  -0.160  0.7629E+00  0.2882E+01
  -0.150  0.7545E+00  0.2890E+01
  -0.140  0.7461E+00  0.2897E+01
  -0.130  0.7380E+00  0.2904E+01
  -0.120  0.7299E+00  0.2912E+01
  -0.110  0.7220E+00  0.2919E+01
  -0.100  0.7145E+00  0.2926E+01
  -0.090  0.7078E+00  0.2933E+01
  -0.080  0.7010E+00  0.2940E+01
  -0.070  0.6943E+00  0.2947E+01
  -0.060  0.6877E+00  0.2954E+01
  -0.050  0.6810E+00  0.2961E+01
  -0.040  0.6744E+00  0.2968E+01
  -0.030  0.6679E+00  0.2975E+01
  -0.020  0.6614E+00  0.2981E+01
  -0.010  0.6549E+00  0.2988E+01
   0.000  0.6484E+00  0.2994E+01
   0.010  0.6419E+00  0.3001E+01
   0.020  0.6355E+00  0.3007E+01
   0.030  0.6292E+00  0.3014E+01
   0.040  0.6231E+00  0.3020E+01
   0.050  0.6172E+00  0.3026E+01
   0.060  0.6113E+00  0.3032E+01
   0.070  0.6057E+00  0.3038E+01
   0.080  0.6001E+00  0.3044E+01
   0.090  0.5947E+00  0.3050E+01
   0.100  0.5894E+00  0.3056E+01
   0.110  0.5842E+00  0.3062E+01
   0.120  0.5792E+00  0.3068E+01
   0.130  0.5743E+00  0.3074E+01
   0.140  0.5695E+00  0.3079E+01
   0.150  0.5649E+00  0.3085E+01
   0.160  0.5604E+00  0.3091E+01
   0.170  0.5560E+00  0.3096E+01
   0.180  0.5518E+00  0.3102E+01
   0.190  0.5475E+00  0.3107E+01
   0.200  0.5432E+00  0.3113E+01
   0.210  0.5392E+00  0.3118E+01
   0.220  0.5356E+00  0.3123E+01
   0.230  0.5320E+00  0.3129E+01
   0.240  0.5284E+00  0.3134E+01
   0.250  0.5249E+00  0.3139E+01
   0.260  0.5214E+00  0.3145E+01
   0.270  0.5179E+00  0.3150E+01
   0.280  0.5144E+00  0.3155E+01
   0.290  0.5110E+00  0.3160E+01
   0.300  0.5076E+00  0.3165E+01
   0.310  0.5042E+00  0.3170E+01
   0.320  0.5009E+00  0.3175E+01
   0.330  0.4976E+00  0.3180E+01
   0.340  0.4943E+00  0.3185E+01
   0.350  0.4910E+00  0.3190E+01
   0.360  0.4878E+00  0.3195E+01
   0.370  0.4846E+00  0.3200E+01
   0.380  0.4814E+00  0.3205E+01
   0.390  0.4782E+00  0.3210E+01
   0.400  0.4751E+00  0.3214E+01
   0.410  0.4720E+00  0.3219E+01
   0.420  0.4690E+00  0.3224E+01
   0.430  0.4659E+00  0.3228E+01
   0.440  0.4629E+00  0.3233E+01
   0.450  0.4599E+00  0.3238E+01
   0.460  0.4570E+00  0.3242E+01
   0.470  0.4540E+00  0.3247E+01
   0.480  0.4511E+00  0.3251E+01
   0.490  0.4482E+00  0.3256E+01
   0.500  0.4453E+00  0.3260E+01
   0.510  0.4424E+00  0.3265E+01
   0.520  0.4396E+00  0.3269E+01
   0.530  0.4367E+00  0.3274E+01
   0.540  0.4338E+00  0.3278E+01
   0.550  0.4329E+00  0.3282E+01
   0.560  0.4316E+00  0.3287E+01
   0.570  0.4299E+00  0.3291E+01
   0.580  0.4279E+00  0.3295E+01
   0.590  0.4256E+00  0.3299E+01
   0.600  0.4233E+00  0.3304E+01
   0.610  0.4210E+00  0.3308E+01
   0.620  0.4186E+00  0.3312E+01
   0.630  0.4162E+00  0.3316E+01
   0.640  0.4138E+00  0.3320E+01
   0.650  0.4113E+00  0.3325E+01
   0.660  0.4089E+00  0.3329E+01
   0.670  0.4064E+00  0.3333E+01
   0.680  0.4039E+00  0.3337E+01
   0.690  0.4014E+00  0.3341E+01
   0.700  0.3988E+00  0.3345E+01
   0.710  0.3963E+00  0.3349E+01
   0.720  0.3937E+00  0.3353E+01
   0.730  0.3911E+00  0.3357E+01
   0.740  0.3884E+00  0.3361E+01
   0.750  0.3858E+00  0.3364E+01
   0.760  0.3833E+00  0.3368E+01
   0.770  0.3808E+00  0.3372E+01
   0.780  0.3783E+00  0.3376E+01
   0.790  0.3759E+00  0.3380E+01
   0.800  0.3735E+00  0.3383E+01
   0.810  0.3711E+00  0.3387E+01
   0.820  0.3688E+00  0.3391E+01
   0.830  0.3665E+00  0.3394E+01
   0.840  0.3642E+00  0.3398E+01
   0.850  0.3619E+00  0.3402E+01
   0.860  0.3597E+00  0.3405E+01
   0.870  0.3576E+00  0.3409E+01
   0.880  0.3554E+00  0.3413E+01
   0.890  0.3533E+00  0.3416E+01
   0.900  0.3512E+00  0.3420E+01
   0.910  0.3492E+00  0.3423E+01
   0.920  0.3471E+00  0.3427E+01
   0.930  0.3451E+00  0.3430E+01
   0.940  0.3432E+00  0.3433E+01
   0.950  0.3412E+00  0.3437E+01
   0.960  0.3392E+00  0.3440E+01
   0.970  0.3373E+00  0.3444E+01
   0.980  0.3354E+00  0.3447E+01
   0.990  0.3334E+00  0.3450E+01
   1.000  0.3315E+00  0.3454E+01
   1.010  0.3296E+00  0.3457E+01
   1.020  0.3278E+00  0.3460E+01
   1.030  0.3259E+00  0.3464E+01
   1.040  0.3240E+00  0.3467E+01
   1.050  0.3222E+00  0.3470E+01
   1.060  0.3203E+00  0.3473E+01
   1.070  0.3185E+00  0.3476E+01
   1.080  0.3166E+00  0.3480E+01
   1.090  0.3148E+00  0.3483E+01
   1.100  0.3131E+00  0.3486E+01
   1.110  0.3113E+00  0.3489E+01
   1.120  0.3096E+00  0.3492E+01
   1.130  0.3079E+00  0.3495E+01
   1.140  0.3062E+00  0.3498E+01
   1.150  0.3046E+00  0.3501E+01
   1.160  0.3030E+00  0.3504E+01
   1.170  0.3014E+00  0.3507E+01
   1.180  0.2998E+00  0.3510E+01
   1.190  0.2983E+00  0.3513E+01
   1.200  0.2968E+00  0.3516E+01
   1.210  0.2953E+00  0.3519E+01
   1.220  0.2938E+00  0.3522E+01
   1.230  0.2924E+00  0.3525E+01
   1.240  0.2910E+00  0.3528E+01
   1.250  0.2896E+00  0.3531E+01
   1.260  0.2883E+00  0.3534E+01
   1.270  0.2871E+00  0.3537E+01
   1.280  0.2858E+00  0.3540E+01
   1.290  0.2845E+00  0.3543E+01
   1.300  0.2833E+00  0.3545E+01
   1.310  0.2820E+00  0.3548E+01
   1.320  0.2807E+00  0.3551E+01
   1.330  0.2794E+00  0.3554E+01
   1.340  0.2781E+00  0.3557E+01
   1.350  0.2769E+00  0.3559E+01
   1.360  0.2760E+00  0.3562E+01
   1.370  0.2750E+00  0.3565E+01
   1.380  0.2741E+00  0.3568E+01
   1.390  0.2731E+00  0.3570E+01
   1.400  0.2720E+00  0.3573E+01
   1.410  0.2709E+00  0.3576E+01
   1.420  0.2698E+00  0.3579E+01
   1.430  0.2687E+00  0.3581E+01
   1.440  0.2675E+00  0.3584E+01
   1.450  0.2663E+00  0.3587E+01
   1.460  0.2651E+00  0.3589E+01
   1.470  0.2638E+00  0.3592E+01
   1.480  0.2625E+00  0.3595E+01
   1.490  0.2612E+00  0.3597E+01
   1.500  0.2598E+00  0.3600E+01
   1.510  0.2584E+00  0.3602E+01
   1.520  0.2569E+00  0.3605E+01
   1.530  0.2555E+00  0.3607E+01
   1.540  0.2539E+00  0.3610E+01
   1.550  0.2522E+00  0.3613E+01
   1.560  0.2505E+00  0.3615E+01
   1.570  0.2488E+00  0.3618E+01
   1.580  0.2472E+00  0.3620E+01
   1.590  0.2456E+00  0.3623E+01
   1.600  0.2439E+00  0.3625E+01
   1.610  0.2423E+00  0.3627E+01
   1.620  0.2408E+00  0.3630E+01
   1.630  0.2392E+00  0.3632E+01
   1.640  0.2377E+00  0.3635E+01
   1.650  0.2361E+00  0.3637E+01
   1.660  0.2346E+00  0.3639E+01
   1.670  0.2331E+00  0.3642E+01
   1.680  0.2316E+00  0.3644E+01
   1.690  0.2302E+00  0.3646E+01
   1.700  0.2287E+00  0.3649E+01
   1.710  0.2276E+00  0.3651E+01
   1.720  0.2276E+00  0.3653E+01
   1.730  0.2290E+00  0.3655E+01
   1.740  0.2317E+00  0.3658E+01
   1.750  0.2356E+00  0.3660E+01
   1.760  0.2410E+00  0.3662E+01
   1.770  0.2476E+00  0.3665E+01
   1.780  0.2555E+00  0.3667E+01
   1.790  0.2647E+00  0.3670E+01
   1.800  0.2753E+00  0.3673E+01
   1.810  0.2871E+00  0.3675E+01
   1.820  0.3003E+00  0.3678E+01
   1.830  0.3150E+00  0.3682E+01
   1.840  0.3310E+00  0.3685E+01
   1.850  0.3483E+00  0.3688E+01
   1.860  0.3669E+00  0.3692E+01
   1.870  0.4060E+00  0.3695E+01
   1.880  0.5160E+00  0.3700E+01
   1.890  0.6056E+00  0.3706E+01
   1.900  0.6744E+00  0.3712E+01
   1.910  0.7167E+00  0.3719E+01
   1.920  0.7632E+00  0.3727E+01
   1.930  0.8124E+00  0.3734E+01
   1.940  0.8589E+00  0.3743E+01
   1.950  0.9028E+00  0.3752E+01
   1.960  0.9441E+00  0.3761E+01
   1.970  0.9828E+00  0.3770E+01
   1.980  0.1017E+01  0.3780E+01
   1.990  0.1046E+01  0.3791E+01
   2.000  0.1073E+01  0.3801E+01
   2.010  0.1101E+01  0.3812E+01
   2.020  0.1127E+01  0.3823E+01
   2.030  0.1153E+01  0.3835E+01
   2.040  0.1178E+01  0.3846E+01
   2.050  0.1191E+01  0.3858E+01
   2.060  0.1199E+01  0.3870E+01
   2.070  0.1207E+01  0.3882E+01
   2.080  0.1212E+01  0.3894E+01
   2.090  0.1217E+01  0.3907E+01
   2.100  0.1220E+01  0.3919E+01
   2.110  0.1221E+01  0.3931E+01
   2.120  0.1221E+01  0.3943E+01
   2.130  0.1217E+01  0.3955E+01
   2.140  0.1211E+01  0.3967E+01
   2.150  0.1204E+01  0.3980E+01
   2.160  0.1196E+01  0.3992E+01
   2.170  0.1187E+01  0.4003E+01
   2.180  0.1178E+01  0.4015E+01
   2.190  0.1169E+01  0.4027E+01
   2.200  0.1159E+01  0.4039E+01
   2.210  0.1150E+01  0.4050E+01
   2.220  0.1141E+01  0.4062E+01
   2.230  0.1133E+01  0.4073E+01
   2.240  0.1125E+01  0.4084E+01
   2.250  0.1120E+01  0.4096E+01
   2.260  0.1117E+01  0.4107E+01
   2.270  0.1113E+01  0.4118E+01
   2.280  0.1111E+01  0.4129E+01
   2.290  0.1108E+01  0.4140E+01
   2.300  0.1106E+01  0.4151E+01
   2.310  0.1103E+01  0.4162E+01
   2.320  0.1101E+01  0.4173E+01
   2.330  0.1099E+01  0.4184E+01
   2.340  0.1097E+01  0.4195E+01
   2.350  0.1096E+01  0.4206E+01
   2.360  0.1094E+01  0.4217E+01
   2.370  0.1093E+01  0.4228E+01
   2.380  0.1108E+01  0.4239E+01
   2.390  0.1117E+01  0.4250E+01
   2.400  0.1101E+01  0.4261E+01
   2.410  0.1086E+01  0.4272E+01
   2.420  0.1073E+01  0.4283E+01
   2.430  0.1061E+01  0.4294E+01
   2.440  0.1050E+01  0.4304E+01
   2.450  0.1042E+01  0.4315E+01
   2.460  0.1034E+01  0.4325E+01
   2.470  0.1028E+01  0.4335E+01
   2.480  0.1024E+01  0.4346E+01
   2.490  0.1021E+01  0.4356E+01
   2.500  0.1019E+01  0.4366E+01
   2.510  0.1018E+01  0.4376E+01
   2.520  0.1016E+01  0.4386E+01
   2.530  0.1015E+01  0.4397E+01
   2.540  0.1014E+01  0.4407E+01
   2.550  0.1013E+01  0.4417E+01
   2.560  0.1012E+01  0.4427E+01
   2.570  0.1011E+01  0.4437E+01
   2.580  0.1017E+01  0.4447E+01
   2.590  0.1025E+01  0.4457E+01
   2.600  0.1028E+01  0.4468E+01
   2.610  0.1027E+01  0.4478E+01
   2.620  0.1022E+01  0.4488E+01
   2.630  0.1012E+01  0.4498E+01
   2.640  0.9980E+00  0.4508E+01
   2.650  0.9951E+00  0.4518E+01
   2.660  0.9939E+00  0.4528E+01
   2.670  0.9937E+00  0.4538E+01
   2.680  0.9944E+00  0.4548E+01
   2.690  0.9960E+00  0.4558E+01
   2.700  0.9987E+00  0.4568E+01
   2.710  0.1002E+01  0.4578E+01
   2.720  0.1004E+01  0.4588E+01
   2.730  0.1005E+01  0.4598E+01
   2.740  0.1007E+01  0.4608E+01
   2.750  0.1008E+01  0.4618E+01
   2.760  0.1010E+01  0.4628E+01
   2.770  0.1012E+01  0.4639E+01
   2.780  0.1015E+01  0.4649E+01
   2.790  0.1017E+01  0.4659E+01
   2.800  0.1020E+01  0.4669E+01
   2.810  0.1023E+01  0.4679E+01
   2.820  0.1027E+01  0.4690E+01
   2.830  0.1031E+01  0.4700E+01
   2.840  0.1035E+01  0.4710E+01
   2.850  0.1039E+01  0.4721E+01
   2.860  0.1042E+01  0.4731E+01
   2.870  0.1046E+01  0.4741E+01
   2.880  0.1050E+01  0.4752E+01
   2.890  0.1054E+01  0.4762E+01
   2.900  0.1059E+01  0.4773E+01
   2.910  0.1063E+01  0.4784E+01
   2.920  0.1068E+01  0.4794E+01
   2.930  0.1073E+01  0.4805E+01
   2.940  0.1078E+01  0.4816E+01
   2.950  0.1083E+01  0.4826E+01
   2.960  0.1088E+01  0.4837E+01
   2.970  0.1094E+01  0.4848E+01
   2.980  0.1100E+01  0.4859E+01
   2.990  0.1263E+01  0.4871E+01
   3.000  0.1233E+01  0.4884E+01
   3.010  0.1187E+01  0.4895E+01
   3.020  0.1186E+01  0.4907E+01
   3.030  0.1183E+01  0.4919E+01
   3.040  0.1179E+01  0.4931E+01
   3.050  0.1185E+01  0.4943E+01
   3.060  0.1190E+01  0.4955E+01
   3.070  0.1196E+01  0.4967E+01
   3.080  0.1202E+01  0.4979E+01
   3.090  0.1210E+01  0.4991E+01
   3.100  0.1218E+01  0.5003E+01
   3.110  0.1226E+01  0.5015E+01
   3.120  0.1235E+01  0.5027E+01
   3.130  0.1245E+01  0.5040E+01
   3.140  0.1254E+01  0.5052E+01
   3.150  0.1263E+01  0.5065E+01
   3.160  0.1273E+01  0.5077E+01
   3.170  0.1282E+01  0.5090E+01
   3.180  0.1292E+01  0.5103E+01
   3.190  0.1302E+01  0.5116E+01
   3.200  0.1314E+01  0.5129E+01
   3.210  0.1328E+01  0.5142E+01
   3.220  0.1344E+01  0.5156E+01
   3.230  0.1362E+01  0.5169E+01
   3.240  0.1380E+01  0.5183E+01
   3.250  0.1396E+01  0.5197E+01
   3.260  0.1411E+01  0.5211E+01
   3.270  0.1439E+01  0.5225E+01
   3.280  0.1470E+01  0.5240E+01
   3.290  0.1497E+01  0.5254E+01
   3.300  0.1520E+01  0.5270E+01
   3.310  0.1525E+01  0.5285E+01
   3.320  0.1516E+01  0.5300E+01
   3.330  0.1504E+01  0.5315E+01
   3.340  0.1513E+01  0.5330E+01
   3.350  0.1521E+01  0.5345E+01
   3.360  0.1528E+01  0.5361E+01
   3.370  0.1532E+01  0.5376E+01
   3.380  0.1536E+01  0.5391E+01
   3.390  0.1537E+01  0.5407E+01
   3.400  0.1537E+01  0.5422E+01
   3.410  0.1513E+01  0.5437E+01
   3.420  0.1494E+01  0.5452E+01
   3.430  0.1483E+01  0.5467E+01
   3.440  0.1479E+01  0.5482E+01
   3.450  0.1477E+01  0.5497E+01
   3.460  0.1475E+01  0.5512E+01
   3.470  0.1474E+01  0.5526E+01
   3.480  0.1474E+01  0.5541E+01
   3.490  0.1474E+01  0.5556E+01
   3.500  0.1475E+01  0.5570E+01
   3.510  0.1477E+01  0.5585E+01
   3.520  0.1479E+01  0.5600E+01
   3.530  0.1481E+01  0.5615E+01
   3.540  0.1485E+01  0.5630E+01
   3.550  0.1530E+01  0.5645E+01
   3.560  0.1534E+01  0.5660E+01
   3.570  0.1531E+01  0.5675E+01
   3.580  0.1527E+01  0.5691E+01
   3.590  0.1524E+01  0.5706E+01
   3.600  0.1518E+01  0.5721E+01
   3.610  0.1511E+01  0.5736E+01
   3.620  0.1503E+01  0.5751E+01
   3.630  0.1497E+01  0.5766E+01
   3.640  0.1488E+01  0.5781E+01
   3.650  0.1480E+01  0.5796E+01
   3.660  0.1473E+01  0.5811E+01
   3.670  0.1466E+01  0.5826E+01
   3.680  0.1459E+01  0.5840E+01
   3.690  0.1453E+01  0.5855E+01
   3.700  0.1448E+01  0.5869E+01
   3.710  0.1443E+01  0.5884E+01
   3.720  0.1438E+01  0.5898E+01
   3.730  0.1434E+01  0.5912E+01
   3.740  0.1430E+01  0.5927E+01
   3.750  0.1427E+01  0.5941E+01
   3.760  0.1413E+01  0.5955E+01
   3.770  0.1411E+01  0.5969E+01
   3.780  0.1412E+01  0.5983E+01
   3.790  0.1416E+01  0.5998E+01
   3.800  0.1422E+01  0.6012E+01
   3.810  0.1430E+01  0.6026E+01
   3.820  0.1440E+01  0.6040E+01
   3.830  0.1461E+01  0.6055E+01
   3.840  0.1447E+01  0.6069E+01
   3.850  0.1398E+01  0.6084E+01
   3.860  0.1393E+01  0.6098E+01
   3.870  0.1389E+01  0.6112E+01
   3.880  0.1385E+01  0.6125E+01
   3.890  0.1381E+01  0.6139E+01
   3.900  0.1376E+01  0.6153E+01
   3.910  0.1372E+01  0.6167E+01
   3.920  0.1368E+01  0.6180E+01
   3.930  0.1363E+01  0.6194E+01
   3.940  0.1359E+01  0.6208E+01
   3.950  0.1355E+01  0.6221E+01
   3.960  0.1351E+01  0.6235E+01
   3.970  0.1347E+01  0.6248E+01
   3.980  0.1344E+01  0.6262E+01
   3.990  0.1341E+01  0.6275E+01
   4.000  0.1340E+01  0.6289E+01
   4.010  0.1341E+01  0.6302E+01
   4.020  0.1344E+01  0.6315E+01
   4.030  0.1349E+01  0.6329E+01
   4.040  0.1356E+01  0.6342E+01
   4.050  0.1374E+01  0.6356E+01
   4.060  0.1362E+01  0.6370E+01
   4.070  0.1356E+01  0.6383E+01
   4.080  0.1350E+01  0.6397E+01
   4.090  0.1344E+01  0.6410E+01
   4.100  0.1340E+01  0.6424E+01
   4.110  0.1335E+01  0.6437E+01
   4.120  0.1331E+01  0.6450E+01
   4.130  0.1328E+01  0.6464E+01
   4.140  0.1324E+01  0.6477E+01
   4.150  0.1321E+01  0.6490E+01
   4.160  0.1319E+01  0.6503E+01
   4.170  0.1317E+01  0.6517E+01
   4.180  0.1315E+01  0.6530E+01
   4.190  0.1314E+01  0.6543E+01
   4.200  0.1312E+01  0.6556E+01
   4.210  0.1311E+01  0.6569E+01
   4.220  0.1310E+01  0.6582E+01
   4.230  0.1307E+01  0.6595E+01
   4.240  0.1305E+01  0.6608E+01
   4.250  0.1303E+01  0.6622E+01
   4.260  0.1302E+01  0.6635E+01
   4.270  0.1300E+01  0.6648E+01
   4.280  0.1299E+01  0.6661E+01
   4.290  0.1297E+01  0.6674E+01
   4.300  0.1296E+01  0.6686E+01
   4.310  0.1293E+01  0.6699E+01
   4.320  0.1290E+01  0.6712E+01
   4.330  0.1305E+01  0.6725E+01
   4.340  0.1331E+01  0.6738E+01
   4.350  0.1347E+01  0.6752E+01
   4.360  0.1350E+01  0.6765E+01
   4.370  0.1348E+01  0.6779E+01
   4.380  0.1344E+01  0.6792E+01
   4.390  0.1336E+01  0.6806E+01
   4.400  0.1324E+01  0.6819E+01
   4.410  0.1310E+01  0.6832E+01
   4.420  0.1291E+01  0.6845E+01
   4.430  0.1281E+01  0.6858E+01
   4.440  0.1277E+01  0.6871E+01
   4.450  0.1274E+01  0.6884E+01
   4.460  0.1270E+01  0.6896E+01
   4.470  0.1266E+01  0.6909E+01
   4.480  0.1263E+01  0.6922E+01
   4.490  0.1260E+01  0.6934E+01
   4.500  0.1257E+01  0.6947E+01
   4.510  0.1254E+01  0.6959E+01
   4.520  0.1251E+01  0.6972E+01
   4.530  0.1248E+01  0.6984E+01
   4.540  0.1246E+01  0.6997E+01
   4.550  0.1244E+01  0.7009E+01
   4.560  0.1263E+01  0.7022E+01
   4.570  0.1281E+01  0.7035E+01
   4.580  0.1294E+01  0.7047E+01
   4.590  0.1302E+01  0.7060E+01
   4.600  0.1303E+01  0.7073E+01
   4.610  0.1296E+01  0.7086E+01
   4.620  0.1287E+01  0.7099E+01
   4.630  0.1277E+01  0.7112E+01
   4.640  0.1268E+01  0.7125E+01
   4.650  0.1258E+01  0.7138E+01
   4.660  0.1246E+01  0.7150E+01
   4.670  0.1237E+01  0.7162E+01
   4.680  0.1232E+01  0.7175E+01
   4.690  0.1227E+01  0.7187E+01
   4.700  0.1222E+01  0.7199E+01
   4.710  0.1217E+01  0.7212E+01
   4.720  0.1212E+01  0.7224E+01
   4.730  0.1207E+01  0.7236E+01
   4.740  0.1201E+01  0.7248E+01
   4.750  0.1195E+01  0.7260E+01
   4.760  0.1189E+01  0.7272E+01
   4.770  0.1183E+01  0.7284E+01
   4.780  0.1177E+01  0.7295E+01
   4.790  0.1171E+01  0.7307E+01
   4.800  0.1166E+01  0.7319E+01
   4.810  0.1171E+01  0.7331E+01
   4.820  0.1177E+01  0.7342E+01
   4.830  0.1185E+01  0.7354E+01
   4.840  0.1183E+01  0.7366E+01
   4.850  0.1178E+01  0.7378E+01
   4.860  0.1172E+01  0.7389E+01
   4.870  0.1165E+01  0.7401E+01
   4.880  0.1156E+01  0.7413E+01
   4.890  0.1146E+01  0.7424E+01
   4.900  0.1136E+01  0.7436E+01
   4.910  0.1130E+01  0.7447E+01
   4.920  0.1122E+01  0.7458E+01
   4.930  0.1112E+01  0.7469E+01
   4.940  0.1096E+01  0.7481E+01
   4.950  0.1076E+01  0.7491E+01
   4.960  0.1054E+01  0.7502E+01
   4.970  0.1031E+01  0.7512E+01
   4.980  0.1005E+01  0.7523E+01
   4.990  0.9778E+00  0.7533E+01
   5.000  0.9500E+00  0.7542E+01
   5.010  0.9218E+00  0.7552E+01
   5.020  0.8939E+00  0.7561E+01
   5.030  0.8688E+00  0.7569E+01
   5.040  0.8465E+00  0.7578E+01
   5.050  0.8271E+00  0.7586E+01
   5.060  0.8105E+00  0.7595E+01
   5.070  0.7961E+00  0.7603E+01
   5.080  0.7820E+00  0.7610E+01
   5.090  0.7682E+00  0.7618E+01
   5.100  0.7547E+00  0.7626E+01
   5.110  0.7416E+00  0.7633E+01
   5.120  0.7288E+00  0.7641E+01
   5.130  0.7162E+00  0.7648E+01
   5.140  0.7040E+00  0.7655E+01
   5.150  0.6920E+00  0.7662E+01
   5.160  0.6803E+00  0.7669E+01
   5.170  0.6689E+00  0.7676E+01
   5.180  0.6578E+00  0.7682E+01
   5.190  0.6470E+00  0.7689E+01
   5.200  0.6365E+00  0.7695E+01
   5.210  0.6262E+00  0.7701E+01
   5.220  0.6051E+00  0.7708E+01
   5.230  0.5947E+00  0.7714E+01
   5.240  0.5920E+00  0.7720E+01
   5.250  0.5910E+00  0.7725E+01
   5.260  0.5896E+00  0.7731E+01
   5.270  0.5880E+00  0.7737E+01
   5.280  0.5861E+00  0.7743E+01
   5.290  0.5838E+00  0.7749E+01
   5.300  0.5765E+00  0.7755E+01
   5.310  0.5686E+00  0.7761E+01
   5.320  0.5607E+00  0.7766E+01
   5.330  0.5529E+00  0.7772E+01
   5.340  0.5452E+00  0.7777E+01
   5.350  0.5497E+00  0.7783E+01
   5.360  0.5535E+00  0.7788E+01
   5.370  0.5527E+00  0.7794E+01
   5.380  0.5487E+00  0.7799E+01
   5.390  0.5392E+00  0.7805E+01
   5.400  0.5243E+00  0.7810E+01
   5.410  0.5039E+00  0.7815E+01
   5.420  0.4844E+00  0.7820E+01
   5.430  0.4768E+00  0.7825E+01
   5.440  0.4690E+00  0.7830E+01
   5.450  0.4609E+00  0.7834E+01
   5.460  0.4525E+00  0.7839E+01
   5.470  0.4436E+00  0.7843E+01
   5.480  0.4342E+00  0.7848E+01
   5.490  0.4242E+00  0.7852E+01
   5.500  0.4137E+00  0.7856E+01
   5.510  0.4026E+00  0.7860E+01
   5.520  0.3937E+00  0.7864E+01
   5.530  0.3860E+00  0.7868E+01
   5.540  0.3791E+00  0.7872E+01
   5.550  0.3748E+00  0.7876E+01
   5.560  0.3726E+00  0.7879E+01
   5.570  0.3704E+00  0.7883E+01
   5.580  0.3680E+00  0.7887E+01
   5.590  0.3656E+00  0.7891E+01
   5.600  0.3631E+00  0.7894E+01
   5.610  0.3604E+00  0.7898E+01
   5.620  0.3573E+00  0.7901E+01
   5.630  0.3516E+00  0.7905E+01
   5.640  0.3458E+00  0.7908E+01
   5.650  0.3399E+00  0.7912E+01
   5.660  0.3338E+00  0.7915E+01
   5.670  0.3277E+00  0.7919E+01
   5.680  0.3215E+00  0.7922E+01
   5.690  0.3152E+00  0.7925E+01
   5.700  0.3088E+00  0.7928E+01
   5.710  0.3023E+00  0.7931E+01
   5.720  0.2958E+00  0.7934E+01
   5.730  0.2891E+00  0.7937E+01
   5.740  0.2824E+00  0.7940E+01
   5.750  0.2755E+00  0.7943E+01
   5.760  0.2686E+00  0.7945E+01
   5.770  0.2616E+00  0.7948E+01
   5.780  0.2542E+00  0.7951E+01
   5.790  0.2465E+00  0.7953E+01
   5.800  0.2383E+00  0.7956E+01
   5.810  0.2299E+00  0.7958E+01
   5.820  0.2215E+00  0.7960E+01
   5.830  0.2130E+00  0.7962E+01
   5.840  0.2045E+00  0.7964E+01
   5.850  0.1958E+00  0.7966E+01
   5.860  0.1871E+00  0.7968E+01
   5.870  0.1786E+00  0.7970E+01
   5.880  0.1733E+00  0.7972E+01
   5.890  0.1681E+00  0.7974E+01
   5.900  0.1628E+00  0.7975E+01
   5.910  0.1574E+00  0.7977E+01
   5.920  0.1521E+00  0.7978E+01
   5.930  0.1467E+00  0.7980E+01
   5.940  0.1413E+00  0.7981E+01
   5.950  0.1358E+00  0.7983E+01
   5.960  0.1304E+00  0.7984E+01
   5.970  0.1249E+00  0.7985E+01
   5.980  0.1194E+00  0.7987E+01
   5.990  0.1139E+00  0.7988E+01
   6.000  0.1083E+00  0.7989E+01
   6.010  0.1028E+00  0.7990E+01
   6.020  0.9717E-01  0.7991E+01
   6.030  0.9155E-01  0.7992E+01
   6.040  0.8591E-01  0.7993E+01
   6.050  0.8024E-01  0.7994E+01
   6.060  0.7454E-01  0.7994E+01
   6.070  0.6883E-01  0.7995E+01
   6.080  0.6336E-01  0.7996E+01
   6.090  0.1074E+00  0.7997E+01
   6.100  0.9539E-01  0.7998E+01
   6.110  0.4222E-01  0.7998E+01
   6.120  0.3530E-01  0.7999E+01
   6.130  0.2900E-01  0.7999E+01
   6.140  0.2332E-01  0.7999E+01
   6.150  0.1826E-01  0.8000E+01
   6.160  0.1382E-01  0.8000E+01
   6.170  0.9992E-02  0.8000E+01
   6.180  0.6785E-02  0.8000E+01
   6.190  0.4198E-02  0.8000E+01
   6.200  0.2229E-02  0.8000E+01
   6.210  0.8792E-03  0.8000E+01
   6.220  0.1480E-03  0.8000E+01
   6.230  0.0000E+00  0.8000E+01
   6.240  0.0000E+00  0.8000E+01
   6.250  0.0000E+00  0.8000E+01
   6.260  0.0000E+00  0.8000E+01
   6.270  0.0000E+00  0.8000E+01
   6.280  0.0000E+00  0.8000E+01
   6.290  0.0000E+00  0.8000E+01
   6.300  0.0000E+00  0.8000E+01
   6.310  0.0000E+00  0.8000E+01
   6.320  0.0000E+00  0.8000E+01
   6.330  0.0000E+00  0.8000E+01
   6.340  0.0000E+00  0.8000E+01
   6.350  0.0000E+00  0.8000E+01
   6.360  0.0000E+00  0.8000E+01
   6.370  0.0000E+00  0.8000E+01
   6.380  0.0000E+00  0.8000E+01
   6.390  0.0000E+00  0.8000E+01
   6.400  0.0000E+00  0.8000E+01
   6.410  0.0000E+00  0.8000E+01
   6.420  0.0000E+00  0.8000E+01
   6.430  0.0000E+00  0.8000E+01
   6.440  0.0000E+00  0.8000E+01
   6.450  0.0000E+00  0.8000E+01
   6.460  0.0000E+00  0.8000E+01
   6.470  0.0000E+00  0.8000E+01
   6.480  0.0000E+00  0.8000E+01
   6.490  0.0000E+00  0.8000E+01
   6.500  0.0000E+00  0.8000E+01
   6.510  0.0000E+00  0.8000E+01
   6.520  0.0000E+00  0.8000E+01
   6.530  0.0000E+00  0.8000E+01
   6.540  0.0000E+00  0.8000E+01
   6.550  0.0000E+00  0.8000E+01
   6.560  0.0000E+00  0.8000E+01
   6.570  0.0000E+00  0.8000E+01
   6.580  0.0000E+00  0.8000E+01
   6.590  0.0000E+00  0.8000E+01
   6.600  0.0000E+00  0.8000E+01
   6.610  0.0000E+00  0.8000E+01
   6.620  0.0000E+00  0.8000E+01
   6.630  0.0000E+00  0.8000E+01
   6.640  0.0000E+00  0.8000E+01
   6.650  0.0000E+00  0.8000E+01
   6.660  0.0000E+00  0.8000E+01
   6.670  0.0000E+00  0.8000E+01
   6.680  0.0000E+00  0.8000E+01
   6.690  0.0000E+00  0.8000E+01
   6.700  0.0000E+00  0.8000E+01
   6.710  0.0000E+00  0.8000E+01
   6.720  0.0000E+00  0.8000E+01
   6.730  0.1840E-03  0.8000E+01
   6.740  0.8139E-03  0.8000E+01
   6.750  0.1892E-02  0.8000E+01
   6.760  0.3417E-02  0.8000E+01
   6.770  0.5391E-02  0.8000E+01
   6.780  0.7812E-02  0.8000E+01
   6.790  0.1068E-01  0.8000E+01
   6.800  0.1400E-01  0.8000E+01
   6.810  0.1776E-01  0.8001E+01
   6.820  0.2198E-01  0.8001E+01
   6.830  0.2664E-01  0.8001E+01
   6.840  0.3175E-01  0.8001E+01
   6.850  0.3730E-01  0.8002E+01
   6.860  0.4354E-01  0.8002E+01
   6.870  0.5137E-01  0.8002E+01
   6.880  0.6090E-01  0.8003E+01
   6.890  0.7214E-01  0.8004E+01
   6.900  0.8510E-01  0.8004E+01
   6.910  0.9979E-01  0.8005E+01
   6.920  0.1162E+00  0.8006E+01
   6.930  0.1214E+00  0.8008E+01
   6.940  0.1258E+00  0.8009E+01
   6.950  0.1306E+00  0.8010E+01
   6.960  0.1357E+00  0.8012E+01
   6.970  0.1411E+00  0.8013E+01
   6.980  0.1468E+00  0.8014E+01
   6.990  0.1529E+00  0.8016E+01
   7.000  0.1593E+00  0.8017E+01
   7.010  0.1660E+00  0.8019E+01
   7.020  0.1730E+00  0.8021E+01
   7.030  0.1804E+00  0.8023E+01
   7.040  0.1881E+00  0.8024E+01
   7.050  0.1954E+00  0.8026E+01
   7.060  0.2004E+00  0.8028E+01
   7.070  0.2055E+00  0.8030E+01
   7.080  0.2108E+00  0.8032E+01
   7.090  0.2162E+00  0.8034E+01
   7.100  0.2217E+00  0.8037E+01
   7.110  0.2272E+00  0.8039E+01
   7.120  0.2328E+00  0.8041E+01
   7.130  0.2384E+00  0.8044E+01
   7.140  0.2440E+00  0.8046E+01
   7.150  0.2497E+00  0.8048E+01
   7.160  0.2554E+00  0.8051E+01
   7.170  0.2612E+00  0.8054E+01
   7.180  0.2671E+00  0.8056E+01
   7.190  0.2730E+00  0.8059E+01
   7.200  0.2789E+00  0.8062E+01
   7.210  0.2849E+00  0.8064E+01
   7.220  0.2909E+00  0.8067E+01
   7.230  0.2970E+00  0.8070E+01
   7.240  0.3030E+00  0.8073E+01
   7.250  0.3091E+00  0.8076E+01
   7.260  0.3151E+00  0.8079E+01
   7.270  0.3212E+00  0.8083E+01
   7.280  0.3273E+00  0.8086E+01
   7.290  0.3334E+00  0.8089E+01
   7.300  0.3395E+00  0.8093E+01
   7.310  0.3458E+00  0.8096E+01
   7.320  0.3529E+00  0.8099E+01
   7.330  0.3609E+00  0.8103E+01
   7.340  0.3702E+00  0.8107E+01
   7.350  0.3807E+00  0.8110E+01
   7.360  0.3924E+00  0.8114E+01
   7.370  0.4053E+00  0.8118E+01
   7.380  0.4195E+00  0.8122E+01
   7.390  0.4320E+00  0.8127E+01
   7.400  0.4412E+00  0.8131E+01
   7.410  0.4508E+00  0.8136E+01
   7.420  0.4607E+00  0.8140E+01
   7.430  0.4712E+00  0.8145E+01
   7.440  0.4820E+00  0.8150E+01
   7.450  0.4933E+00  0.8154E+01
   7.460  0.5051E+00  0.8159E+01
   7.470  0.5173E+00  0.8164E+01
   7.480  0.5299E+00  0.8170E+01
   7.490  0.6755E+00  0.8176E+01
   7.500  0.5059E+00  0.8182E+01
   7.510  0.5092E+00  0.8187E+01
   7.520  0.5136E+00  0.8192E+01
   7.530  0.5180E+00  0.8197E+01
   7.540  0.5222E+00  0.8202E+01
   7.550  0.5263E+00  0.8208E+01
   7.560  0.5303E+00  0.8213E+01
   7.570  0.5346E+00  0.8218E+01
   7.580  0.5394E+00  0.8224E+01
   7.590  0.5440E+00  0.8229E+01
   7.600  0.5485E+00  0.8235E+01
   7.610  0.5528E+00  0.8240E+01
   7.620  0.5571E+00  0.8246E+01
   7.630  0.5614E+00  0.8251E+01
   7.640  0.5658E+00  0.8257E+01
   7.650  0.5702E+00  0.8262E+01
   7.660  0.5747E+00  0.8268E+01
   7.670  0.5791E+00  0.8274E+01
   7.680  0.5836E+00  0.8280E+01
   7.690  0.5880E+00  0.8286E+01
   7.700  0.5925E+00  0.8292E+01
   7.710  0.5972E+00  0.8298E+01
   7.720  0.6019E+00  0.8303E+01
   7.730  0.6067E+00  0.8310E+01
   7.740  0.6116E+00  0.8316E+01
   7.750  0.6165E+00  0.8322E+01
   7.760  0.6214E+00  0.8328E+01
   7.770  0.6263E+00  0.8334E+01
   7.780  0.6313E+00  0.8340E+01
   7.790  0.6363E+00  0.8347E+01
   7.800  0.6417E+00  0.8353E+01
   7.810  0.6472E+00  0.8360E+01
   7.820  0.6530E+00  0.8366E+01
   7.830  0.6591E+00  0.8373E+01
   7.840  0.6654E+00  0.8379E+01
   7.850  0.6718E+00  0.8386E+01
   7.860  0.6784E+00  0.8393E+01
   7.870  0.6852E+00  0.8400E+01
   7.880  0.6921E+00  0.8406E+01
   7.890  0.6991E+00  0.8413E+01
   7.900  0.7106E+00  0.8420E+01
   7.910  0.7572E+00  0.8428E+01
   7.920  0.7847E+00  0.8436E+01
   7.930  0.7869E+00  0.8443E+01
   7.940  0.7885E+00  0.8451E+01
   7.950  0.7894E+00  0.8459E+01
   7.960  0.7897E+00  0.8467E+01
   7.970  0.7892E+00  0.8475E+01
   7.980  0.7902E+00  0.8483E+01
   7.990  0.7993E+00  0.8491E+01
   8.000  0.8084E+00  0.8499E+01
   8.010  0.8176E+00  0.8507E+01
   8.020  0.8268E+00  0.8515E+01
   8.030  0.8344E+00  0.8524E+01
   8.040  0.8425E+00  0.8532E+01
   8.050  0.8510E+00  0.8540E+01
   8.060  0.8603E+00  0.8549E+01
   8.070  0.8703E+00  0.8558E+01
   8.080  0.8807E+00  0.8566E+01
   8.090  0.8915E+00  0.8575E+01
   8.100  0.9028E+00  0.8584E+01
   8.110  0.9144E+00  0.8593E+01
   8.120  0.9265E+00  0.8602E+01
   8.130  0.9389E+00  0.8612E+01
   8.140  0.9518E+00  0.8621E+01
   8.150  0.9651E+00  0.8631E+01
   8.160  0.9789E+00  0.8641E+01
   8.170  0.9940E+00  0.8650E+01
   8.180  0.1011E+01  0.8660E+01
   8.190  0.1029E+01  0.8671E+01
   8.200  0.1048E+01  0.8681E+01
   8.210  0.1071E+01  0.8692E+01
   8.220  0.1098E+01  0.8702E+01
   8.230  0.1130E+01  0.8714E+01
   8.240  0.1166E+01  0.8725E+01
   8.250  0.1210E+01  0.8737E+01
   8.260  0.1261E+01  0.8749E+01
   8.270  0.1318E+01  0.8762E+01
   8.280  0.1383E+01  0.8776E+01
   8.290  0.1515E+01  0.8790E+01
   8.300  0.1630E+01  0.8806E+01
   8.310  0.1622E+01  0.8822E+01
   8.320  0.1566E+01  0.8838E+01
   8.330  0.1576E+01  0.8854E+01
   8.340  0.1586E+01  0.8870E+01
   8.350  0.1597E+01  0.8885E+01
   8.360  0.1608E+01  0.8901E+01
   8.370  0.1621E+01  0.8918E+01
   8.380  0.1635E+01  0.8934E+01
   8.390  0.1649E+01  0.8950E+01
   8.400  0.1662E+01  0.8967E+01
   8.410  0.1674E+01  0.8984E+01
   8.420  0.1685E+01  0.9000E+01
   8.430  0.1696E+01  0.9017E+01
   8.440  0.1706E+01  0.9034E+01
   8.450  0.1715E+01  0.9051E+01
   8.460  0.1730E+01  0.9069E+01
   8.470  0.1745E+01  0.9086E+01
   8.480  0.1760E+01  0.9104E+01
   8.490  0.1775E+01  0.9121E+01
   8.500  0.1789E+01  0.9139E+01
   8.510  0.1823E+01  0.9157E+01
   8.520  0.1975E+01  0.9176E+01
   8.530  0.2063E+01  0.9196E+01
   8.540  0.2045E+01  0.9217E+01
   8.550  0.2019E+01  0.9237E+01
   8.560  0.2021E+01  0.9257E+01
   8.570  0.2020E+01  0.9277E+01
   8.580  0.2020E+01  0.9298E+01
   8.590  0.2020E+01  0.9318E+01
   8.600  0.2020E+01  0.9338E+01
   8.610  0.2019E+01  0.9358E+01
   8.620  0.2016E+01  0.9378E+01
   8.630  0.2012E+01  0.9399E+01
   8.640  0.2006E+01  0.9419E+01
   8.650  0.1999E+01  0.9439E+01
   8.660  0.1990E+01  0.9459E+01
   8.670  0.1979E+01  0.9479E+01
   8.680  0.1967E+01  0.9498E+01
   8.690  0.1954E+01  0.9518E+01
   8.700  0.1940E+01  0.9537E+01
   8.710  0.1925E+01  0.9557E+01
   8.720  0.1908E+01  0.9576E+01
   8.730  0.1892E+01  0.9595E+01
   8.740  0.1874E+01  0.9614E+01
   8.750  0.1855E+01  0.9632E+01
   8.760  0.1836E+01  0.9651E+01
   8.770  0.1817E+01  0.9669E+01
   8.780  0.1796E+01  0.9687E+01
   8.790  0.1775E+01  0.9705E+01
   8.800  0.1753E+01  0.9723E+01
   8.810  0.1731E+01  0.9740E+01
   8.820  0.1693E+01  0.9757E+01
   8.830  0.1583E+01  0.9774E+01
   8.840  0.1534E+01  0.9789E+01
   8.850  0.1500E+01  0.9804E+01
   8.860  0.1466E+01  0.9819E+01
   8.870  0.1436E+01  0.9834E+01
   8.880  0.1408E+01  0.9848E+01
   8.890  0.1382E+01  0.9862E+01
   8.900  0.1357E+01  0.9875E+01
   8.910  0.1332E+01  0.9889E+01
   8.920  0.1309E+01  0.9902E+01
   8.930  0.1285E+01  0.9915E+01
   8.940  0.1263E+01  0.9928E+01
   8.950  0.1240E+01  0.9940E+01
   8.960  0.1218E+01  0.9953E+01
   8.970  0.1195E+01  0.9965E+01
   8.980  0.1171E+01  0.9976E+01
   8.990  0.1149E+01  0.9988E+01
   9.000  0.1127E+01  0.9999E+01
   9.010  0.1106E+01  0.1001E+02
   9.020  0.1085E+01  0.1002E+02
   9.030  0.1064E+01  0.1003E+02
   9.040  0.1042E+01  0.1004E+02
   9.050  0.1022E+01  0.1005E+02
   9.060  0.1007E+01  0.1006E+02
   9.070  0.9922E+00  0.1007E+02
   9.080  0.9777E+00  0.1008E+02
   9.090  0.9636E+00  0.1009E+02
   9.100  0.9498E+00  0.1010E+02
   9.110  0.9365E+00  0.1011E+02
   9.120  0.9235E+00  0.1012E+02
   9.130  0.9109E+00  0.1013E+02
   9.140  0.8987E+00  0.1014E+02
   9.150  0.8869E+00  0.1015E+02
   9.160  0.8755E+00  0.1016E+02
   9.170  0.8645E+00  0.1017E+02
   9.180  0.8538E+00  0.1017E+02
   9.190  0.8432E+00  0.1018E+02
   9.200  0.8337E+00  0.1019E+02
   9.210  0.8259E+00  0.1020E+02
   9.220  0.8171E+00  0.1021E+02
   9.230  0.8090E+00  0.1022E+02
   9.240  0.8018E+00  0.1022E+02
   9.250  0.7953E+00  0.1023E+02
   9.260  0.7897E+00  0.1024E+02
   9.270  0.7847E+00  0.1025E+02
   9.280  0.7802E+00  0.1026E+02
   9.290  0.7762E+00  0.1026E+02
   9.300  0.7727E+00  0.1027E+02
   9.310  0.7765E+00  0.1028E+02
   9.320  0.7846E+00  0.1029E+02
   9.330  0.7946E+00  0.1029E+02
   9.340  0.8063E+00  0.1030E+02
   9.350  0.8199E+00  0.1031E+02
   9.360  0.8354E+00  0.1032E+02
   9.370  0.8527E+00  0.1033E+02
   9.380  0.8718E+00  0.1034E+02
   9.390  0.8925E+00  0.1034E+02
   9.400  0.9184E+00  0.1035E+02
   9.410  0.9615E+00  0.1036E+02
   9.420  0.1029E+01  0.1037E+02
   9.430  0.1091E+01  0.1038E+02
   9.440  0.1147E+01  0.1040E+02
   9.450  0.1196E+01  0.1041E+02
   9.460  0.1259E+01  0.1042E+02
   9.470  0.1319E+01  0.1043E+02
   9.480  0.1366E+01  0.1045E+02
   9.490  0.1411E+01  0.1046E+02
   9.500  0.1458E+01  0.1047E+02
   9.510  0.1503E+01  0.1049E+02
   9.520  0.1553E+01  0.1050E+02
   9.530  0.1604E+01  0.1052E+02
   9.540  0.1645E+01  0.1054E+02
   9.550  0.1680E+01  0.1055E+02
   9.560  0.1711E+01  0.1057E+02
   9.570  0.1734E+01  0.1059E+02
   9.580  0.1750E+01  0.1060E+02
   9.590  0.1747E+01  0.1062E+02
   9.600  0.1729E+01  0.1064E+02
   9.610  0.1743E+01  0.1066E+02
   9.620  0.1775E+01  0.1067E+02
   9.630  0.1808E+01  0.1069E+02
   9.640  0.1842E+01  0.1071E+02
   9.650  0.1878E+01  0.1073E+02
   9.660  0.1916E+01  0.1075E+02
   9.670  0.1956E+01  0.1077E+02
   9.680  0.1998E+01  0.1079E+02
   9.690  0.2042E+01  0.1081E+02
   9.700  0.2088E+01  0.1083E+02
   9.710  0.2149E+01  0.1085E+02
   9.720  0.2218E+01  0.1087E+02
   9.730  0.2287E+01  0.1089E+02
   9.740  0.2309E+01  0.1092E+02
   9.750  0.2265E+01  0.1094E+02
   9.760  0.2214E+01  0.1096E+02
   9.770  0.2156E+01  0.1098E+02
   9.780  0.2098E+01  0.1100E+02
   9.790  0.2062E+01  0.1103E+02
   9.800  0.2027E+01  0.1105E+02
   9.810  0.1988E+01  0.1107E+02
   9.820  0.1990E+01  0.1109E+02
   9.830  0.1990E+01  0.1111E+02
   9.840  0.1987E+01  0.1113E+02
   9.850  0.1982E+01  0.1115E+02
   9.860  0.1973E+01  0.1117E+02
   9.870  0.1962E+01  0.1118E+02
   9.880  0.1948E+01  0.1120E+02
   9.890  0.1931E+01  0.1122E+02
   9.900  0.1911E+01  0.1124E+02
   9.910  0.1890E+01  0.1126E+02
   9.920  0.1871E+01  0.1128E+02
   9.930  0.1860E+01  0.1130E+02
   9.940  0.1849E+01  0.1132E+02
   9.950  0.1835E+01  0.1134E+02
   9.960  0.1826E+01  0.1135E+02
   9.970  0.1801E+01  0.1137E+02
   9.980  0.1791E+01  0.1139E+02
   9.990  0.1780E+01  0.1141E+02
  10.000  0.1770E+01  0.1143E+02
  10.010  0.1760E+01  0.1144E+02
  10.020  0.1749E+01  0.1146E+02
  10.030  0.1739E+01  0.1148E+02
  10.040  0.1728E+01  0.1150E+02
  10.050  0.1717E+01  0.1151E+02
  10.060  0.1706E+01  0.1153E+02
  10.070  0.1695E+01  0.1155E+02
  10.080  0.1684E+01  0.1156E+02
  10.090  0.1673E+01  0.1158E+02
  10.100  0.1662E+01  0.1160E+02
  10.110  0.1651E+01  0.1161E+02
  10.120  0.1640E+01  0.1163E+02
  10.130  0.1629E+01  0.1165E+02
  10.140  0.1618E+01  0.1166E+02
  10.150  0.1606E+01  0.1168E+02
  10.160  0.1591E+01  0.1170E+02
  10.170  0.1576E+01  0.1171E+02
  10.180  0.1561E+01  0.1173E+02
  10.190  0.1545E+01  0.1174E+02
  10.200  0.1530E+01  0.1176E+02
  10.210  0.1515E+01  0.1177E+02
  10.220  0.1500E+01  0.1179E+02
  10.230  0.1484E+01  0.1180E+02
  10.240  0.1469E+01  0.1182E+02
  10.250  0.1454E+01  0.1183E+02
  10.260  0.1438E+01  0.1185E+02
  10.270  0.1423E+01  0.1186E+02
  10.280  0.1408E+01  0.1188E+02
  10.290  0.1394E+01  0.1189E+02
  10.300  0.1381E+01  0.1190E+02
  10.310  0.1471E+01  0.1192E+02
  10.320  0.1429E+01  0.1193E+02
  10.330  0.1337E+01  0.1195E+02
  10.340  0.1330E+01  0.1196E+02
  10.350  0.1323E+01  0.1197E+02
  10.360  0.1318E+01  0.1199E+02
  10.370  0.1310E+01  0.1200E+02
  10.380  0.1303E+01  0.1201E+02
  10.390  0.1299E+01  0.1202E+02
  10.400  0.1296E+01  0.1204E+02
  10.410  0.1295E+01  0.1205E+02
  10.420  0.1294E+01  0.1206E+02
  10.430  0.1291E+01  0.1208E+02
  10.440  0.1290E+01  0.1209E+02
  10.450  0.1279E+01  0.1210E+02
  10.460  0.1243E+01  0.1212E+02
  10.470  0.1203E+01  0.1213E+02
  10.480  0.1212E+01  0.1214E+02
  10.490  0.1202E+01  0.1215E+02
  10.500  0.1187E+01  0.1216E+02
  10.510  0.1173E+01  0.1218E+02
  10.520  0.1160E+01  0.1219E+02
  10.530  0.1148E+01  0.1220E+02
  10.540  0.1137E+01  0.1221E+02
  10.550  0.1127E+01  0.1222E+02
  10.560  0.1118E+01  0.1223E+02
  10.570  0.1110E+01  0.1224E+02
  10.580  0.1103E+01  0.1225E+02
  10.590  0.1097E+01  0.1227E+02
  10.600  0.1093E+01  0.1228E+02
  10.610  0.1089E+01  0.1229E+02
  10.620  0.1086E+01  0.1230E+02
  10.630  0.1085E+01  0.1231E+02
  10.640  0.1085E+01  0.1232E+02
  10.650  0.1086E+01  0.1233E+02
  10.660  0.1089E+01  0.1234E+02
  10.670  0.1092E+01  0.1235E+02
  10.680  0.1100E+01  0.1236E+02
  10.690  0.1110E+01  0.1237E+02
  10.700  0.1121E+01  0.1239E+02
  10.710  0.1133E+01  0.1240E+02
  10.720  0.1146E+01  0.1241E+02
  10.730  0.1153E+01  0.1242E+02
  10.740  0.1148E+01  0.1243E+02
  10.750  0.1155E+01  0.1244E+02
  10.760  0.1175E+01  0.1245E+02
  10.770  0.1208E+01  0.1247E+02
  10.780  0.1253E+01  0.1248E+02
  10.790  0.1304E+01  0.1249E+02
  10.800  0.1359E+01  0.1250E+02
  10.810  0.1355E+01  0.1252E+02
  10.820  0.1341E+01  0.1253E+02
  10.830  0.1316E+01  0.1255E+02
  10.840  0.1281E+01  0.1256E+02
  10.850  0.1236E+01  0.1257E+02
  10.860  0.1188E+01  0.1258E+02
  10.870  0.1163E+01  0.1259E+02
  10.880  0.1149E+01  0.1261E+02
  10.890  0.1136E+01  0.1262E+02
  10.900  0.1122E+01  0.1263E+02
  10.910  0.1107E+01  0.1264E+02
  10.920  0.1093E+01  0.1265E+02
  10.930  0.1079E+01  0.1266E+02
  10.940  0.1065E+01  0.1267E+02
  10.950  0.1050E+01  0.1268E+02
  10.960  0.1036E+01  0.1269E+02
  10.970  0.1022E+01  0.1270E+02
  10.980  0.1008E+01  0.1271E+02
  10.990  0.9974E+00  0.1272E+02
  11.000  0.9875E+00  0.1273E+02
  11.010  0.9786E+00  0.1274E+02
  11.020  0.9706E+00  0.1275E+02
  11.030  0.9635E+00  0.1276E+02
  11.040  0.9549E+00  0.1277E+02
  11.050  0.9465E+00  0.1278E+02
  11.060  0.9391E+00  0.1279E+02
  11.070  0.9363E+00  0.1280E+02
  11.080  0.9344E+00  0.1281E+02
  11.090  0.9356E+00  0.1282E+02
  11.100  0.9861E+00  0.1283E+02
  11.110  0.1077E+01  0.1284E+02
  11.120  0.1172E+01  0.1285E+02
  11.130  0.1282E+01  0.1286E+02
  11.140  0.1299E+01  0.1288E+02
  11.150  0.1221E+01  0.1289E+02
  11.160  0.1115E+01  0.1290E+02
  11.170  0.1115E+01  0.1291E+02
  11.180  0.1116E+01  0.1292E+02
  11.190  0.1117E+01  0.1293E+02
  11.200  0.1118E+01  0.1295E+02
  11.210  0.1121E+01  0.1296E+02
  11.220  0.1124E+01  0.1297E+02
  11.230  0.1134E+01  0.1298E+02
  11.240  0.1150E+01  0.1299E+02
  11.250  0.1169E+01  0.1300E+02
  11.260  0.1188E+01  0.1301E+02
  11.270  0.1203E+01  0.1303E+02
  11.280  0.1215E+01  0.1304E+02
  11.290  0.1224E+01  0.1305E+02
  11.300  0.1230E+01  0.1306E+02
  11.310  0.1233E+01  0.1307E+02
  11.320  0.1233E+01  0.1309E+02
  11.330  0.1229E+01  0.1310E+02
  11.340  0.1223E+01  0.1311E+02
  11.350  0.1213E+01  0.1312E+02
  11.360  0.1211E+01  0.1314E+02
  11.370  0.1208E+01  0.1315E+02
  11.380  0.1206E+01  0.1316E+02
  11.390  0.1204E+01  0.1317E+02
  11.400  0.1202E+01  0.1318E+02
  11.410  0.1200E+01  0.1320E+02
  11.420  0.1199E+01  0.1321E+02
  11.430  0.1197E+01  0.1322E+02
  11.440  0.1195E+01  0.1323E+02
  11.450  0.1194E+01  0.1324E+02
  11.460  0.1193E+01  0.1326E+02
  11.470  0.1192E+01  0.1327E+02
  11.480  0.1191E+01  0.1328E+02
  11.490  0.1190E+01  0.1329E+02
  11.500  0.1189E+01  0.1330E+02
  11.510  0.1188E+01  0.1332E+02
  11.520  0.1186E+01  0.1333E+02
  11.530  0.1184E+01  0.1334E+02
  11.540  0.1182E+01  0.1335E+02
  11.550  0.1180E+01  0.1336E+02
  11.560  0.1178E+01  0.1337E+02
  11.570  0.1176E+01  0.1339E+02
  11.580  0.1174E+01  0.1340E+02
  11.590  0.1172E+01  0.1341E+02
  11.600  0.1170E+01  0.1342E+02
  11.610  0.1168E+01  0.1343E+02
  11.620  0.1167E+01  0.1344E+02
  11.630  0.1166E+01  0.1346E+02
  11.640  0.1166E+01  0.1347E+02
  11.650  0.1167E+01  0.1348E+02
  11.660  0.1168E+01  0.1349E+02
  11.670  0.1168E+01  0.1350E+02
  11.680  0.1167E+01  0.1351E+02
  11.690  0.1166E+01  0.1353E+02
  11.700  0.1165E+01  0.1354E+02
  11.710  0.1163E+01  0.1355E+02
  11.720  0.1161E+01  0.1356E+02
  11.730  0.1162E+01  0.1357E+02
  11.740  0.1163E+01  0.1358E+02
  11.750  0.1165E+01  0.1360E+02
  11.760  0.1166E+01  0.1361E+02
  11.770  0.1168E+01  0.1362E+02
  11.780  0.1170E+01  0.1363E+02
  11.790  0.1171E+01  0.1364E+02
  11.800  0.1172E+01  0.1365E+02
  11.810  0.1174E+01  0.1367E+02
  11.820  0.1175E+01  0.1368E+02
  11.830  0.1176E+01  0.1369E+02
  11.840  0.1178E+01  0.1370E+02
  11.850  0.1179E+01  0.1371E+02
  11.860  0.1180E+01  0.1373E+02
  11.870  0.1181E+01  0.1374E+02
  11.880  0.1182E+01  0.1375E+02
  11.890  0.1181E+01  0.1376E+02
  11.900  0.1180E+01  0.1377E+02
  11.910  0.1179E+01  0.1378E+02
  11.920  0.1177E+01  0.1380E+02
  11.930  0.1175E+01  0.1381E+02
  11.940  0.1173E+01  0.1382E+02
  11.950  0.1171E+01  0.1383E+02
  11.960  0.1169E+01  0.1384E+02
  11.970  0.1166E+01  0.1385E+02
  11.980  0.1164E+01  0.1387E+02
  11.990  0.1164E+01  0.1388E+02
  12.000  0.1162E+01  0.1389E+02
  12.010  0.1159E+01  0.1390E+02
  12.020  0.1154E+01  0.1391E+02
  12.030  0.1148E+01  0.1392E+02
  12.040  0.1141E+01  0.1394E+02
  12.050  0.1133E+01  0.1395E+02
  12.060  0.1124E+01  0.1396E+02
  12.070  0.1114E+01  0.1397E+02
  12.080  0.1103E+01  0.1398E+02
  12.090  0.1090E+01  0.1399E+02
  12.100  0.1076E+01  0.1400E+02
  12.110  0.1061E+01  0.1401E+02
  12.120  0.1044E+01  0.1402E+02
  12.130  0.1026E+01  0.1403E+02
  12.140  0.1014E+01  0.1404E+02
  12.150  0.1002E+01  0.1405E+02
  12.160  0.9921E+00  0.1406E+02
  12.170  0.9826E+00  0.1407E+02
  12.180  0.9745E+00  0.1408E+02
  12.190  0.9678E+00  0.1409E+02
  12.200  0.9626E+00  0.1410E+02
  12.210  0.9589E+00  0.1411E+02
  12.220  0.9566E+00  0.1412E+02
  12.230  0.9558E+00  0.1413E+02
  12.240  0.9564E+00  0.1414E+02
  12.250  0.9489E+00  0.1415E+02
  12.260  0.9298E+00  0.1416E+02
  12.270  0.9223E+00  0.1417E+02
  12.280  0.9115E+00  0.1418E+02
  12.290  0.9031E+00  0.1419E+02
  12.300  0.9660E+00  0.1420E+02
  12.310  0.8723E+00  0.1421E+02
  12.320  0.8692E+00  0.1422E+02
  12.330  0.8664E+00  0.1422E+02
  12.340  0.8638E+00  0.1423E+02
  12.350  0.8602E+00  0.1424E+02
  12.360  0.8566E+00  0.1425E+02
  12.370  0.8551E+00  0.1426E+02
  12.380  0.8549E+00  0.1427E+02
  12.390  0.8550E+00  0.1428E+02
  12.400  0.8552E+00  0.1428E+02
  12.410  0.8557E+00  0.1429E+02
  12.420  0.8565E+00  0.1430E+02
  12.430  0.8577E+00  0.1431E+02
  12.440  0.8595E+00  0.1432E+02
  12.450  0.8617E+00  0.1433E+02
  12.460  0.8643E+00  0.1434E+02
  12.470  0.8671E+00  0.1434E+02
  12.480  0.8722E+00  0.1435E+02
  12.490  0.8806E+00  0.1436E+02
  12.500  0.8911E+00  0.1437E+02
  12.510  0.9022E+00  0.1438E+02
  12.520  0.9127E+00  0.1439E+02
  12.530  0.9231E+00  0.1440E+02
  12.540  0.9334E+00  0.1441E+02
  12.550  0.9436E+00  0.1442E+02
  12.560  0.9537E+00  0.1443E+02
  12.570  0.9636E+00  0.1444E+02
  12.580  0.9734E+00  0.1445E+02
  12.590  0.9830E+00  0.1445E+02
  12.600  0.9926E+00  0.1446E+02
  12.610  0.1002E+01  0.1447E+02
  12.620  0.1011E+01  0.1448E+02
  12.630  0.1020E+01  0.1450E+02
  12.640  0.1029E+01  0.1451E+02
  12.650  0.1038E+01  0.1452E+02
  12.660  0.1047E+01  0.1453E+02
  12.670  0.1056E+01  0.1454E+02
  12.680  0.1065E+01  0.1455E+02
  12.690  0.1074E+01  0.1456E+02
  12.700  0.1083E+01  0.1457E+02
  12.710  0.1092E+01  0.1458E+02
  12.720  0.1101E+01  0.1459E+02
  12.730  0.1107E+01  0.1460E+02
  12.740  0.1106E+01  0.1461E+02
  12.750  0.1107E+01  0.1462E+02
  12.760  0.1110E+01  0.1463E+02
  12.770  0.1115E+01  0.1465E+02
  12.780  0.1119E+01  0.1466E+02
  12.790  0.1122E+01  0.1467E+02
  12.800  0.1125E+01  0.1468E+02
  12.810  0.1128E+01  0.1469E+02
  12.820  0.1130E+01  0.1470E+02
  12.830  0.1131E+01  0.1471E+02
  12.840  0.1132E+01  0.1472E+02
  12.850  0.1133E+01  0.1474E+02
  12.860  0.1134E+01  0.1475E+02
  12.870  0.1133E+01  0.1476E+02
  12.880  0.1132E+01  0.1477E+02
  12.890  0.1128E+01  0.1478E+02
  12.900  0.1125E+01  0.1479E+02
  12.910  0.1123E+01  0.1480E+02
  12.920  0.1121E+01  0.1482E+02
  12.930  0.1120E+01  0.1483E+02
  12.940  0.1120E+01  0.1484E+02
  12.950  0.1120E+01  0.1485E+02
  12.960  0.1122E+01  0.1486E+02
  12.970  0.1123E+01  0.1487E+02
  12.980  0.1122E+01  0.1488E+02
  12.990  0.1119E+01  0.1489E+02
  13.000  0.1117E+01  0.1490E+02
  13.010  0.1115E+01  0.1492E+02
  13.020  0.1112E+01  0.1493E+02
  13.030  0.1110E+01  0.1494E+02
  13.040  0.1109E+01  0.1495E+02
  13.050  0.1107E+01  0.1496E+02
  13.060  0.1106E+01  0.1497E+02
  13.070  0.1101E+01  0.1498E+02
  13.080  0.1096E+01  0.1499E+02
  13.090  0.1091E+01  0.1500E+02
  13.100  0.1086E+01  0.1502E+02
  13.110  0.1081E+01  0.1503E+02
  13.120  0.1075E+01  0.1504E+02
  13.130  0.1070E+01  0.1505E+02
  13.140  0.1064E+01  0.1506E+02
  13.150  0.1058E+01  0.1507E+02
  13.160  0.1051E+01  0.1508E+02
  13.170  0.1045E+01  0.1509E+02
  13.180  0.1039E+01  0.1510E+02
  13.190  0.1032E+01  0.1511E+02
  13.200  0.1025E+01  0.1512E+02
  13.210  0.1018E+01  0.1513E+02
  13.220  0.1011E+01  0.1514E+02
  13.230  0.1003E+01  0.1515E+02
  13.240  0.9952E+00  0.1516E+02
  13.250  0.9871E+00  0.1517E+02
  13.260  0.9789E+00  0.1518E+02
  13.270  0.9705E+00  0.1519E+02
  13.280  0.9618E+00  0.1520E+02
  13.290  0.9523E+00  0.1521E+02
  13.300  0.9427E+00  0.1522E+02
  13.310  0.9331E+00  0.1523E+02
  13.320  0.9234E+00  0.1524E+02
  13.330  0.9136E+00  0.1525E+02
  13.340  0.9036E+00  0.1526E+02
  13.350  0.8934E+00  0.1527E+02
  13.360  0.8828E+00  0.1527E+02
  13.370  0.8717E+00  0.1528E+02
  13.380  0.8605E+00  0.1529E+02
  13.390  0.8491E+00  0.1530E+02
  13.400  0.8377E+00  0.1531E+02
  13.410  0.8266E+00  0.1532E+02
  13.420  0.8158E+00  0.1533E+02
  13.430  0.8055E+00  0.1533E+02
  13.440  0.7955E+00  0.1534E+02
  13.450  0.7859E+00  0.1535E+02
  13.460  0.7766E+00  0.1536E+02
  13.470  0.7679E+00  0.1536E+02
  13.480  0.7597E+00  0.1537E+02
  13.490  0.7519E+00  0.1538E+02
  13.500  0.7445E+00  0.1539E+02
  13.510  0.7375E+00  0.1539E+02
  13.520  0.7309E+00  0.1540E+02
  13.530  0.7245E+00  0.1541E+02
  13.540  0.7184E+00  0.1542E+02
  13.550  0.7117E+00  0.1542E+02
  13.560  0.7045E+00  0.1543E+02
  13.570  0.6976E+00  0.1544E+02
  13.580  0.6910E+00  0.1544E+02
  13.590  0.6847E+00  0.1545E+02
  13.600  0.6787E+00  0.1546E+02
  13.610  0.6729E+00  0.1547E+02
  13.620  0.6675E+00  0.1547E+02
  13.630  0.6623E+00  0.1548E+02
  13.640  0.6574E+00  0.1549E+02
  13.650  0.6528E+00  0.1549E+02
  13.660  0.6485E+00  0.1550E+02
  13.670  0.6445E+00  0.1550E+02
  13.680  0.6407E+00  0.1551E+02
  13.690  0.6378E+00  0.1552E+02
  13.700  0.6349E+00  0.1552E+02
  13.710  0.6316E+00  0.1553E+02
  13.720  0.6281E+00  0.1554E+02
  13.730  0.6247E+00  0.1554E+02
  13.740  0.6180E+00  0.1555E+02
  13.750  0.6111E+00  0.1556E+02
  13.760  0.6050E+00  0.1556E+02
  13.770  0.5970E+00  0.1557E+02
  13.780  0.5865E+00  0.1557E+02
  13.790  0.5744E+00  0.1558E+02
  13.800  0.5609E+00  0.1558E+02
  13.810  0.5459E+00  0.1559E+02
  13.820  0.5294E+00  0.1560E+02
  13.830  0.5120E+00  0.1560E+02
  13.840  0.5055E+00  0.1561E+02
  13.850  0.5011E+00  0.1561E+02
  13.860  0.4973E+00  0.1562E+02
  13.870  0.4939E+00  0.1562E+02
  13.880  0.4910E+00  0.1563E+02
  13.890  0.4889E+00  0.1563E+02
  13.900  0.4875E+00  0.1564E+02
  13.910  0.4863E+00  0.1564E+02
  13.920  0.4852E+00  0.1565E+02
  13.930  0.4843E+00  0.1565E+02
  13.940  0.4834E+00  0.1566E+02
  13.950  0.4826E+00  0.1566E+02
  13.960  0.4819E+00  0.1566E+02
  13.970  0.4813E+00  0.1567E+02
  13.980  0.4807E+00  0.1567E+02
  13.990  0.4803E+00  0.1568E+02
  14.000  0.4799E+00  0.1568E+02
  14.010  0.4796E+00  0.1569E+02
  14.020  0.4791E+00  0.1569E+02
  14.030  0.4780E+00  0.1570E+02
  14.040  0.4765E+00  0.1570E+02
  14.050  0.4745E+00  0.1571E+02
  14.060  0.4720E+00  0.1571E+02
  14.070  0.4803E+00  0.1572E+02
  14.080  0.4879E+00  0.1572E+02
  14.090  0.4911E+00  0.1573E+02
  14.100  0.4898E+00  0.1573E+02
  14.110  0.4840E+00  0.1574E+02
  14.120  0.4738E+00  0.1574E+02
  14.130  0.4590E+00  0.1575E+02
  14.140  0.4399E+00  0.1575E+02
  14.150  0.4162E+00  0.1576E+02
  14.160  0.3887E+00  0.1576E+02
  14.170  0.3620E+00  0.1576E+02
  14.180  0.3404E+00  0.1577E+02
  14.190  0.3238E+00  0.1577E+02
  14.200  0.3110E+00  0.1577E+02
  14.210  0.2990E+00  0.1578E+02
  14.220  0.2878E+00  0.1578E+02
  14.230  0.2772E+00  0.1578E+02
  14.240  0.2673E+00  0.1578E+02
  14.250  0.2582E+00  0.1579E+02
  14.260  0.2497E+00  0.1579E+02
  14.270  0.2420E+00  0.1579E+02
  14.280  0.2387E+00  0.1579E+02
  14.290  0.2370E+00  0.1580E+02
  14.300  0.2353E+00  0.1580E+02
  14.310  0.2336E+00  0.1580E+02
  14.320  0.2319E+00  0.1580E+02
  14.330  0.2302E+00  0.1581E+02
  14.340  0.2286E+00  0.1581E+02
  14.350  0.2269E+00  0.1581E+02
  14.360  0.2252E+00  0.1581E+02
  14.370  0.2236E+00  0.1582E+02
  14.380  0.2220E+00  0.1582E+02
  14.390  0.2203E+00  0.1582E+02
  14.400  0.2187E+00  0.1582E+02
  14.410  0.2171E+00  0.1582E+02
  14.420  0.2155E+00  0.1583E+02
  14.430  0.2139E+00  0.1583E+02
  14.440  0.2123E+00  0.1583E+02
  14.450  0.2108E+00  0.1583E+02
  14.460  0.2092E+00  0.1583E+02
  14.470  0.2076E+00  0.1584E+02
  14.480  0.2061E+00  0.1584E+02
  14.490  0.2046E+00  0.1584E+02
  14.500  0.2031E+00  0.1584E+02
  14.510  0.2015E+00  0.1584E+02
  14.520  0.2000E+00  0.1585E+02
  14.530  0.1985E+00  0.1585E+02
  14.540  0.1970E+00  0.1585E+02
  14.550  0.1956E+00  0.1585E+02
  14.560  0.1941E+00  0.1585E+02
  14.570  0.1927E+00  0.1586E+02
  14.580  0.1912E+00  0.1586E+02
  14.590  0.1898E+00  0.1586E+02
  14.600  0.1885E+00  0.1586E+02
  14.610  0.1871E+00  0.1586E+02
  14.620  0.1858E+00  0.1587E+02
  14.630  0.1845E+00  0.1587E+02
  14.640  0.1832E+00  0.1587E+02
  14.650  0.1819E+00  0.1587E+02
  14.660  0.1807E+00  0.1587E+02
  14.670  0.1795E+00  0.1588E+02
  14.680  0.1782E+00  0.1588E+02
  14.690  0.1771E+00  0.1588E+02
  14.700  0.1759E+00  0.1588E+02
  14.710  0.1748E+00  0.1588E+02
  14.720  0.1737E+00  0.1588E+02
  14.730  0.1726E+00  0.1589E+02
  14.740  0.1715E+00  0.1589E+02
  14.750  0.1705E+00  0.1589E+02
  14.760  0.1694E+00  0.1589E+02
  14.770  0.1684E+00  0.1589E+02
  14.780  0.1674E+00  0.1589E+02
  14.790  0.1665E+00  0.1590E+02
  14.800  0.1655E+00  0.1590E+02
  14.810  0.1646E+00  0.1590E+02
  14.820  0.1637E+00  0.1590E+02
  14.830  0.1629E+00  0.1590E+02
  14.840  0.1620E+00  0.1590E+02
  14.850  0.1612E+00  0.1591E+02
  14.860  0.1609E+00  0.1591E+02
  14.870  0.1609E+00  0.1591E+02
  14.880  0.1608E+00  0.1591E+02
  14.890  0.1607E+00  0.1591E+02
  14.900  0.1605E+00  0.1591E+02
  14.910  0.1604E+00  0.1592E+02
  14.920  0.1603E+00  0.1592E+02
  14.930  0.1601E+00  0.1592E+02
  14.940  0.1600E+00  0.1592E+02
  14.950  0.1598E+00  0.1592E+02
  14.960  0.1597E+00  0.1592E+02
  14.970  0.1595E+00  0.1593E+02
  14.980  0.1593E+00  0.1593E+02
  14.990  0.1591E+00  0.1593E+02
  15.000  0.1589E+00  0.1593E+02
  15.010  0.1587E+00  0.1593E+02
  15.020  0.1585E+00  0.1593E+02
  15.030  0.1583E+00  0.1593E+02
  15.040  0.1580E+00  0.1594E+02
  15.050  0.1578E+00  0.1594E+02
  15.060  0.1576E+00  0.1594E+02
  15.070  0.1573E+00  0.1594E+02
  15.080  0.1567E+00  0.1594E+02
  15.090  0.1561E+00  0.1594E+02
  15.100  0.1558E+00  0.1595E+02
  15.110  0.1558E+00  0.1595E+02
  15.120  0.1562E+00  0.1595E+02
  15.130  0.1569E+00  0.1595E+02
  15.140  0.1579E+00  0.1595E+02
  15.150  0.1593E+00  0.1595E+02
  15.160  0.1616E+00  0.1596E+02
  15.170  0.1657E+00  0.1596E+02
  15.180  0.1689E+00  0.1596E+02
  15.190  0.1710E+00  0.1596E+02
  15.200  0.1722E+00  0.1596E+02
  15.210  0.1723E+00  0.1596E+02
  15.220  0.1715E+00  0.1597E+02
  15.230  0.1696E+00  0.1597E+02
  15.240  0.1667E+00  0.1597E+02
  15.250  0.1628E+00  0.1597E+02
  15.260  0.1579E+00  0.1597E+02
  15.270  0.1520E+00  0.1597E+02
  15.280  0.1451E+00  0.1598E+02
  15.290  0.1372E+00  0.1598E+02
  15.300  0.1283E+00  0.1598E+02
  15.310  0.1183E+00  0.1598E+02
  15.320  0.1073E+00  0.1598E+02
  15.330  0.9588E-01  0.1598E+02
  15.340  0.9081E-01  0.1598E+02
  15.350  0.8535E-01  0.1598E+02
  15.360  0.7950E-01  0.1598E+02
  15.370  0.7327E-01  0.1598E+02
  15.380  0.6664E-01  0.1599E+02
  15.390  0.5963E-01  0.1599E+02
  15.400  0.5223E-01  0.1599E+02
  15.410  0.4444E-01  0.1599E+02
  15.420  0.3980E-01  0.1599E+02
  15.430  0.3897E-01  0.1599E+02
  15.440  0.3815E-01  0.1599E+02
  15.450  0.3734E-01  0.1599E+02
  15.460  0.3654E-01  0.1599E+02
  15.470  0.3574E-01  0.1599E+02
  15.480  0.3496E-01  0.1599E+02
  15.490  0.3418E-01  0.1599E+02
  15.500  0.3342E-01  0.1599E+02
  15.510  0.3266E-01  0.1599E+02
  15.520  0.3191E-01  0.1599E+02
  15.530  0.3117E-01  0.1599E+02
  15.540  0.3043E-01  0.1599E+02
  15.550  0.2971E-01  0.1599E+02
  15.560  0.2899E-01  0.1599E+02
  15.570  0.2829E-01  0.1599E+02
  15.580  0.2759E-01  0.1599E+02
  15.590  0.2690E-01  0.1599E+02
  15.600  0.2622E-01  0.1599E+02
  15.610  0.2555E-01  0.1599E+02
  15.620  0.2489E-01  0.1599E+02
  15.630  0.2423E-01  0.1599E+02
  15.640  0.2359E-01  0.1599E+02
  15.650  0.2295E-01  0.1599E+02
  15.660  0.2232E-01  0.1599E+02
  15.670  0.2170E-01  0.1599E+02
  15.680  0.2109E-01  0.1600E+02
  15.690  0.2049E-01  0.1600E+02
  15.700  0.1990E-01  0.1600E+02
  15.710  0.1931E-01  0.1600E+02
  15.720  0.1874E-01  0.1600E+02
  15.730  0.1817E-01  0.1600E+02
  15.740  0.1761E-01  0.1600E+02
  15.750  0.1706E-01  0.1600E+02
  15.760  0.1652E-01  0.1600E+02
  15.770  0.1599E-01  0.1600E+02
  15.780  0.1546E-01  0.1600E+02
  15.790  0.1495E-01  0.1600E+02
  15.800  0.1444E-01  0.1600E+02
  15.810  0.1395E-01  0.1600E+02
  15.820  0.1346E-01  0.1600E+02
  15.830  0.1298E-01  0.1600E+02
  15.840  0.1251E-01  0.1600E+02
  15.850  0.1204E-01  0.1600E+02
  15.860  0.1159E-01  0.1600E+02
  15.870  0.1115E-01  0.1600E+02
  15.880  0.1071E-01  0.1600E+02
  15.890  0.1028E-01  0.1600E+02
  15.900  0.9863E-02  0.1600E+02
  15.910  0.9452E-02  0.1600E+02
  15.920  0.9051E-02  0.1600E+02
  15.930  0.8658E-02  0.1600E+02
  15.940  0.8274E-02  0.1600E+02
  15.950  0.7899E-02  0.1600E+02
  15.960  0.7532E-02  0.1600E+02
  15.970  0.7174E-02  0.1600E+02
  15.980  0.6825E-02  0.1600E+02
  15.990  0.6484E-02  0.1600E+02
  16.000  0.6153E-02  0.1600E+02
